AGE (ka),d18O
0.04,-50.12
0.05,-49.16
0.06,-48.14
0.06,-50.35
0.07,-50.94
0.08,-50.6
0.09,-50.52
0.1,-51.07
0.11,-49.97
0.12,-50.89
0.13,-51.6
0.14,-50.45
0.15,-50.81
0.16,-49.98
0.17,-50.62
0.18,-51.07
0.19,-51.72
0.2,-50.11
0.21,-52.51
0.22,-50.22
0.23,-49.92
0.24,-49.86
0.26,-50.44
0.27,-50.7
0.28,-51.7
0.29,-50.98
0.3,-50.72
0.31,-51.68
0.32,-51.17
0.34,-51.26
0.35,-50.64
0.36,-51.5
0.37,-51.56
0.38,-51.89
0.4,-51
0.41,-50.55
0.42,-50.58
0.43,-51.93
0.44,-50.5
0.45,-50.49
0.47,-51.06
0.48,-51.24
0.49,-50.23
0.5,-52.52
0.52,-51.03
0.53,-50.94
0.54,-49.54
0.55,-50.14
0.57,-51.18
0.58,-49.53
0.59,-51.2
0.61,-51.18
0.62,-49.33
0.63,-49.82
0.65,-50.43
0.66,-51.31
0.67,-51.06
0.69,-51.1
0.7,-51.02
0.72,-51.49
0.73,-51.68
0.74,-51.58
0.76,-50.7
0.77,-50.82
0.79,-50.44
0.8,-50.65
0.81,-50.24
0.82,-49.93
0.84,-49.7
0.85,-49.57
0.86,-51.58
0.88,-50.27
0.89,-51.79
0.9,-49.99
0.92,-51.45
0.93,-51.04
0.95,-51.16
0.96,-51.28
0.98,-50.41
0.99,-51.06
1,-50.98
1.02,-51.55
1.03,-50.61
1.05,-49.76
1.06,-50.36
1.07,-51.06
1.09,-51.2
1.1,-50.17
1.12,-51.09
1.13,-49.6
1.15,-51.35
1.16,-50.9
1.17,-49.91
1.19,-49.89
1.2,-50.1
1.22,-51.15
1.23,-50.29
1.24,-50.31
1.26,-50.3
1.27,-50.8
1.29,-50.77
1.3,-49.77
1.32,-50.47
1.33,-50
1.34,-50.9
1.36,-49.43
1.37,-50.25
1.39,-50.89
1.4,-50.76
1.42,-51
1.43,-51.03
1.45,-50.98
1.46,-49.87
1.48,-51.44
1.49,-50.93
1.51,-50.99
1.53,-50.65
1.54,-50.03
1.56,-51.38
1.57,-50.48
1.59,-50.38
1.6,-51.65
1.62,-51.3
1.64,-50.27
1.65,-51.61
1.67,-50.43
1.69,-50.47
1.7,-51.28
1.72,-51.11
1.74,-50.64
1.75,-50.55
1.77,-50.16
1.79,-51.68
1.8,-50.68
1.82,-51.41
1.84,-51.45
1.86,-50.2
1.87,-51.44
1.89,-49.36
1.91,-50.68
1.92,-50.65
1.94,-50.89
1.96,-50.56
1.97,-50.77
1.99,-51.29
2.01,-51.34
2.03,-50.33
2.04,-51.36
2.06,-49.56
2.08,-51.17
2.1,-51.13
2.11,-50.3
2.13,-51.1
2.15,-50.86
2.17,-51.46
2.18,-51.04
2.2,-50.89
2.22,
2.24,-49.96
2.25,-50.31
2.27,-50.82
2.29,-50.38
2.31,-52.07
2.33,-51.68
2.35,-50.99
2.37,-51.17
2.39,-51.28
2.4,-52.22
2.42,-51.22
2.44,-50.53
2.46,-51.03
2.48,-51.04
2.5,-50.28
2.52,-50.85
2.54,-49.87
2.55,-50.64
2.57,-50.23
2.59,-50.94
2.61,-50.26
2.62,-49.78
2.64,-50.29
2.66,-50.47
2.68,-51.01
2.7,-50.5
2.71,-51.27
2.73,-49.59
2.75,-49.89
2.77,-49.91
2.78,-49.9
2.8,-50.48
2.82,-49.63
2.84,-49.79
2.85,-49.59
2.87,-50.5
2.89,-51.17
2.91,-51.6
2.92,-50.09
2.94,-50.42
2.96,-50.77
2.98,-51.24
3,-50.58
3.02,-51.07
3.04,-50.71
3.06,-50.57
3.07,-50.64
3.09,-50.18
3.11,
3.13,-49.46
3.15,-51.71
3.17,-51.17
3.19,-51.64
3.21,-50.18
3.23,-51.2
3.25,-51.98
3.27,-50.28
3.29,-51.09
3.31,-51.41
3.33,-50.03
3.35,-50.99
3.37,-51.75
3.39,-50.66
3.41,-50.85
3.43,-50.88
3.45,-50.72
3.46,-50.53
3.48,-50.31
3.5,-51.5
3.52,-49.7
3.54,-50.46
3.56,-50.91
3.58,-50.56
3.6,-51.01
3.62,-49.88
3.64,-49.96
3.65,-50.42
3.67,-50.02
3.69,-49.99
3.71,-51.44
3.73,-49.54
3.75,-49.63
3.76,-51.79
3.78,-49.7
3.8,-50.65
3.82,-50.22
3.84,-51.32
3.86,-51.31
3.88,-49.93
3.9,-50.61
3.92,-50.85
3.94,-50.62
3.96,-50.85
3.98,-50.18
4,-51.14
4.02,-51.07
4.04,-49.91
4.06,-49.97
4.08,-51.36
4.1,-49.67
4.11,-49.82
4.13,-50.82
4.15,-50.75
4.17,-50.31
4.19,-50.03
4.21,-51.83
4.23,-49.96
4.25,-49.49
4.27,-50.47
4.29,-49.4
4.31,-50.86
4.33,-51.31
4.35,-50.46
4.37,-50.22
4.39,-50.45
4.41,-50.83
4.43,-51.17
4.45,-50.23
4.47,-49.51
4.48,-50.86
4.5,-50
4.52,-51.07
4.54,-50.86
4.56,-51.23
4.58,-50.44
4.6,-50.41
4.62,-49.99
4.64,-50.88
4.66,-50.64
4.68,-50.62
4.7,-50.72
4.72,-49.84
4.74,-50.91
4.76,-51.38
4.78,-50.85
4.8,-50.82
4.82,-51.24
4.84,-50.73
4.86,-49.94
4.88,-50.38
4.9,-50.53
4.92,-50.49
4.94,-50.14
4.96,-49.86
4.98,-50.93
5,-51
5.02,-50.54
5.04,-50.67
5.06,-50.24
5.08,-51.33
5.1,-50.47
5.12,-50.56
5.14,-50.12
5.16,-50.04
5.17,-50.05
5.19,-50.35
5.21,-50.77
5.23,-50.56
5.25,-51.75
5.27,-50.74
5.29,-49.85
5.31,-50.46
5.33,-49.86
5.35,-50.61
5.37,-50.42
5.39,-50.16
5.41,-52.12
5.43,-51.23
5.45,-51.41
5.47,-50.56
5.5,-51.56
5.52,-52.2
5.54,-51.06
5.56,-50.48
5.58,-49.54
5.6,-50.65
5.62,-50.49
5.64,-51.11
5.66,-50.57
5.68,-50.54
5.7,-51.11
5.72,-50.07
5.74,-51.01
5.76,-49.35
5.77,-51.17
5.79,-49.8
5.81,-49.76
5.83,-51.2
5.85,-50.14
5.87,-49.96
5.89,-50.15
5.91,-50.8
5.93,-51.11
5.95,-51.02
5.97,-51.7
5.99,-50.88
6.01,-50.02
6.03,-50.55
6.05,-50.83
6.07,-51.12
6.09,-50.36
6.11,-50.05
6.13,-51.6
6.15,-49.8
6.17,-51.25
6.19,-50.95
6.21,-50.89
6.22,-50.42
6.24,-51.01
6.27,-51.37
6.29,-50.35
6.31,-50.7
6.33,-51.54
6.35,-51.72
6.37,-50.62
6.39,-51.53
6.41,-51.11
6.43,-50.79
6.45,-49.92
6.47,-50.48
6.49,-51.65
6.51,-51.44
6.53,-49.77
6.55,-50.84
6.57,-51.54
6.59,-51.18
6.61,-52.15
6.63,-50.63
6.65,-51.57
6.68,-51.97
6.7,-50.01
6.71,-50.06
6.74,-50.51
6.75,-51.47
6.78,-51.34
6.8,-51.16
6.82,-51.24
6.84,-50.88
6.86,-49.92
6.88,-50.44
6.89,-49.65
6.91,-50.97
6.93,-51.06
6.95,-51.25
6.97,-50.85
6.99,-50.79
7.01,-51.62
7.03,-51.01
7.06,-50.87
7.08,-51.23
7.1,-51.34
7.12,-50.84
7.14,-51.63
7.16,-52.63
7.18,-51.42
7.21,-51.16
7.23,-51.66
7.25,-51.42
7.27,-51.61
7.29,-50.76
7.31,-49.67
7.33,-50.94
7.35,-51.93
7.37,-51.13
7.39,-51.73
7.41,-51.57
7.44,-50.46
7.46,-51.43
7.48,-51.61
7.5,-51.01
7.52,-50.31
7.54,-51.09
7.56,-49.76
7.58,-50.83
7.6,-49.77
7.61,-51.34
7.63,-51.72
7.65,-50.87
7.68,-50.51
7.69,-49.92
7.71,-51.65
7.73,-51.16
7.75,-49.75
7.77,-49.92
7.79,-51.95
7.81,-51.21
7.83,-51.4
7.85,-51.44
7.87,-50.57
7.89,-50.01
7.91,-50.76
7.93,-51.06
7.95,-51.12
7.97,-51.34
7.99,-51.17
8.02,-51.96
8.04,-51.09
8.06,-52.79
8.08,-51.13
8.1,-50.76
8.12,-51.46
8.15,-51.77
8.17,-52.31
8.19,-52.24
8.21,-51.22
8.24,-51.58
8.26,-50.83
8.28,-51.2
8.3,-51.44
8.32,-51.26
8.34,-51.26
8.36,-52.03
8.38,-51.66
8.41,-51.82
8.43,-51.47
8.45,-51
8.47,-50.79
8.49,-50.83
8.51,-52.39
8.53,-50.82
8.55,-49.95
8.57,-50.88
8.59,-51.25
8.61,-50.23
8.63,-51.2
8.65,-51.11
8.67,-50.81
8.69,-51.43
8.71,-51.41
8.73,-50.91
8.75,-51.3
8.77,-50.53
8.79,-51.79
8.81,-51.51
8.83,-50.88
8.85,-50.5
8.87,-50.96
8.89,-50.69
8.91,-50.77
8.93,-51
8.95,-50.04
8.97,-50.28
8.99,-51.29
9.01,-50.62
9.03,-50.76
9.05,-50.57
9.07,-50.97
9.09,-50.51
9.11,-50.62
9.13,-52.09
9.15,-51.56
9.17,-50.13
9.19,-51.1
9.21,-49.96
9.22,-49.66
9.24,-50.36
9.26,-50.77
9.28,-51.36
9.3,-50.21
9.32,-50.27
9.34,-50.34
9.36,-50.51
9.38,-50.14
9.39,-50.2
9.41,-49.85
9.43,
9.45,-49.74
9.46,-50.41
9.48,-51.69
9.5,-50.29
9.52,-50.95
9.54,-50.05
9.56,-50.49
9.58,-49.3
9.6,-50.08
9.61,-50.91
9.63,-50.13
9.65,-50.41
9.67,-49.08
9.69,-50.07
9.7,-49.95
9.72,-49.63
9.74,-49.99
9.76,-48.91
9.77,-49.53
9.79,-51.94
9.81,-50.06
9.83,-50.17
9.85,-51.19
9.87,-49.62
9.88,-50.55
9.9,-49.93
9.92,-50.48
9.94,-50.81
9.96,-49.63
9.98,-50.36
9.99,-50.4
10.01,-49.94
10.03,-49.72
10.05,-50
10.06,-49.65
10.08,-50.81
10.1,-49.84
10.12,-48.89
10.13,-49.43
10.15,-49.71
10.17,-50.16
10.19,-49.77
10.2,-50.14
10.22,-50.68
10.24,-51.06
10.26,-49.5
10.28,-49.99
10.3,-50.01
10.31,-49.82
10.33,-51.15
10.35,-49.68
10.37,-50.89
10.39,-50.25
10.41,-50.32
10.43,-50.98
10.44,-49.65
10.46,-49.42
10.48,-49.01
10.5,-49.58
10.51,-49.8
10.53,-48.06
10.54,-50.59
10.56,-49.88
10.58,-50.16
10.6,-50.42
10.62,-50.34
10.64,-50.19
10.65,-49.9
10.67,-48.94
10.69,-50.32
10.71,-50.45
10.73,-50.33
10.75,-50.65
10.77,-50.15
10.78,-49.89
10.8,-49.71
10.82,-49.36
10.84,-49.9
10.86,-50.77
10.88,-50.29
10.89,-49.79
10.91,-49.53
10.93,-50.36
10.95,-50.96
10.97,-50.11
10.99,-49.61
11.01,-49.91
11.02,-49.38
11.04,-49.69
11.06,-50.8
11.08,-50.46
11.1,-49.86
11.12,-50.53
11.14,-50.75
11.16,-50.34
11.18,-49.28
11.19,-49.25
11.21,-49.43
11.23,-49.85
11.25,-51.21
11.26,-50.07
11.28,-49.85
11.3,-50.23
11.32,-48.57
11.34,-48.69
11.35,-50.9
11.37,-50.26
11.39,-50.62
11.41,-50.11
11.43,-49.62
11.45,-49.18
11.47,-49.62
11.48,-48.82
11.5,-49.27
11.52,-49.92
11.53,-50.34
11.55,-50.13
11.57,-50.27
11.59,-50.32
11.61,-49.47
11.63,-50.14
11.65,-49.46
11.67,-50.23
11.69,-49.49
11.7,-50.46
11.72,-49.86
11.74,-50.17
11.76,-49.29
11.78,-50.36
11.8,-51.37
11.82,-50.83
11.84,-51.01
11.86,-50.74
11.88,-50.99
11.91,-50.77
11.93,-51.49
11.95,-51.51
11.97,-50.66
11.99,-50.82
12.01,-50.66
12.04,-51.67
12.06,-51.37
12.08,-51.59
12.11,-52.94
12.13,-51.84
12.16,-51.67
12.18,-52.4
12.2,-51.36
12.23,-51.08
12.25,-52.03
12.27,-50.97
12.3,-52.54
12.32,-52.82
12.35,-52.11
12.38,-53.19
12.4,-51.78
12.43,-51.35
12.45,-52.36
12.48,-52.43
12.5,-52.29
12.53,-53.51
12.56,-53.11
12.59,-53.21
12.62,-52.83
12.65,-53.3
12.67,-52.24
12.7,-52.63
12.73,-52.42
12.75,-53.3
12.78,-53.63
12.81,-52.52
12.84,-52.98
12.87,-52.04
12.89,-52.57
12.92,-52.95
12.95,-53.03
12.98,-52.72
13.01,-52.17
13.03,-52.54
13.06,-52.68
13.09,-53.11
13.12,-52.87
13.14,-52.52
13.17,-51.9
13.2,-52.28
13.22,-52.78
13.25,-52.14
13.27,-51.91
13.3,-52.43
13.33,-52.62
13.35,-53.43
13.38,-53.17
13.41,-52.63
13.44,-53.14
13.47,-52.36
13.49,-51.38
13.52,-52.6
13.55,-52.25
13.57,-52.97
13.6,-53.06
13.63,-53.22
13.66,-53.15
13.69,-52.16
13.71,-52.91
13.74,-52.54
13.77,-51.48
13.8,-53
13.82,-51.54
13.85,-52.68
13.88,-52.83
13.9,-52.42
13.93,-51.79
13.96,-51.24
13.98,-51.01
14,-51.57
14.03,-52.3
14.05,-52.19
14.08,-52.44
14.11,-51.54
14.13,-51.15
14.16,-51.45
14.18,-51.69
14.2,-52.33
14.23,-49.94
14.25,-50.48
14.27,-50.66
14.29,-51.08
14.32,-50.87
14.34,-51.27
14.36,-50.93
14.39,-53.05
14.42,-51.82
14.44,-51.02
14.47,-52.08
14.49,-52.15
14.52,-51.68
14.55,-52.49
14.57,-51.93
14.6,-52.97
14.63,-52.74
14.66,-52.14
14.69,-52.66
14.72,-52.43
14.74,-51.76
14.77,-51.95
14.8,-52.19
14.82,-51.75
14.85,-51.98
14.88,-52.19
14.9,-53.21
14.93,-50.88
14.96,-52.41
14.98,-52.82
15.01,-52.81
15.04,-51.84
15.07,-52.16
15.1,-52.35
15.12,-52.12
15.15,-52.59
15.18,-52.8
15.21,-53.34
15.24,-53.01
15.27,-53.14
15.3,-53.06
15.34,-53.31
15.37,-53.27
15.4,-52.65
15.43,-52.87
15.46,-53.02
15.49,-53.44
15.52,-52.93
15.55,-53.75
15.58,-52.57
15.61,-52.87
15.64,-53
15.67,-53.15
15.7,-52.93
15.73,-53.16
15.77,-53.38
15.8,-53.59
15.83,-52.94
15.86,-53.96
15.89,-53.38
15.93,-53.33
15.96,-53.83
15.99,-54.25
16.03,-53.93
16.06,-53.31
16.1,-53.44
16.13,-53.47
16.16,-53.38
16.2,-54.49
16.23,-53.61
16.27,-53.37
16.3,-53.79
16.33,-53.93
16.37,-53.73
16.4,-54.21
16.44,-55.16
16.48,-54.19
16.52,-54.53
16.55,-54.19
16.59,-53.92
16.63,-55.5
16.67,-54.47
16.71,-55.11
16.74,-55.04
16.78,-55.19
16.83,-55.66
16.87,-54.66
16.91,-54.81
16.95,-55.27
16.99,-54.27
17.02,-55.3
17.07,-54.4
17.11,-56.04
17.15,-55.21
17.19,-55.19
17.23,-55.76
17.28,-55.29
17.32,-55.73
17.36,-56.03
17.41,-56.08
17.45,-56.07
17.5,-56.22
17.55,-54.84
17.59,-55.54
17.63,-56.24
17.68,-55.49
17.72,-55.5
17.76,-55.91
17.81,-56.39
17.86,-56.23
17.9,-55.67
17.95,-55.86
17.99,-55.55
18.04,-55.83
18.08,-55.96
18.13,-55.91
18.17,-55.97
18.22,-56.15
18.27,-56.03
18.31,-56.69
18.36,-55.4
18.4,-55.75
18.45,-55.04
18.49,-56.25
18.54,-55.63
18.59,-55.98
18.63,-55.87
18.68,-55.83
18.72,-56.15
18.77,-55.51
18.82,-56.57
18.86,-55.9
18.91,-55.16
18.95,-56.71
19,-56.27
19.05,-55.09
19.09,-56.07
19.14,-55.87
19.18,-54.67
19.23,-56.07
19.27,-55.52
19.32,-56.27
19.36,-55.69
19.41,-56.23
19.46,-56.18
19.51,-56.55
19.56,-55.96
19.6,-56.46
19.65,-56.38
19.7,-55.6
19.75,-55.6
19.79,-55.24
19.83,-55.95
19.88,-56.74
19.93,-56.37
19.98,-55.53
20.03,-55.51
20.07,-55.99
20.12,-55.59
20.16,-56.36
20.21,-55.88
20.26,-55.88
20.3,-56.32
20.35,-56.31
20.4,-56.67
20.45,-55.73
20.5,-55.6
20.54,-55.84
20.59,-56
20.63,-56.24
20.68,-56.35
20.73,-55.76
20.78,-56.09
20.82,-56.08
20.87,-56.08
20.92,-56.03
20.97,-56.63
21.01,-55.86
21.06,-56.02
21.11,-55.48
21.15,-55.71
21.2,-56.58
21.25,-56.51
21.3,-55.9
21.35,-55.33
21.39,-54.77
21.43,-56.47
21.48,-56.17
21.53,-55.58
21.58,-55.96
21.63,-56.57
21.68,-56.09
21.72,-55.55
21.77,-55.59
21.81,-55.19
21.86,-56.05
21.91,-55.87
21.95,-56.08
22,-56.18
22.05,-56.43
22.1,-56.66
22.15,-56.3
22.2,-55.43
22.24,-56.43
22.3,-56.37
22.35,-55.24
22.39,-55.8
22.44,-55.91
22.48,-55.43
22.53,-55.88
22.58,-56.4
22.63,-55.76
22.67,-56.48
22.72,-55.97
22.77,-56.18
22.82,-55.97
22.87,-56.34
22.92,-56.05
22.97,-55.77
23.01,-55.36
23.06,-55.51
23.1,-55.08
23.15,-55.6
23.19,-55.85
23.24,-55.55
23.29,-56.71
23.34,-56.07
23.39,-55.69
23.44,-55.99
23.48,-55.41
23.53,-55.64
23.58,-55.8
23.62,-55.43
23.67,-55.75
23.71,-55.99
23.76,-56.1
23.81,-56.94
23.86,-56.56
23.92,-56.22
23.97,-56.24
24.02,-57.05
24.07,-56.28
24.12,-55.99
24.17,-55.8
24.22,-55.7
24.26,-56.42
24.31,-55.96
24.36,-56.59
24.41,-56.69
24.47,-54.95
24.51,-55.77
24.56,-56.29
24.61,-56.75
24.66,-56.54
24.71,-56.48
24.77,-56.46
24.82,-56.23
24.87,-56.58
24.92,-56.01
24.97,-56.35
25.02,-56.48
25.07,-56.38
25.12,-56.16
25.17,-56.09
25.22,-56.82
25.28,-57.05
25.33,-56.82
25.38,-56.18
25.44,-56.5
25.49,-56.32
25.54,-56.16
25.59,-56.26
25.64,-56.03
25.69,-56.79
25.74,-56.75
25.8,-56.19
25.85,-56.98
25.9,-55.88
25.95,-56.46
26,-56.76
26.05,-55.78
26.1,-56.51
26.15,-56.71
26.21,-55.93
26.26,-56.99
26.31,-56.64
26.36,-55.73
26.41,-56.64
26.47,-56.21
26.52,-56.34
26.57,-56.7
26.62,-56.82
26.67,-56.79
26.73,-55.9
26.78,-56.29
26.83,-56.39
26.88,-56.8
26.93,-56.32
26.99,-56.53
27.04,-56.46
27.09,-56.6
27.14,-56.13
27.19,-55.81
27.24,-55.52
27.29,-55.99
27.33,-54.18
27.38,-56.01
27.43,-55.74
27.47,-55.6
27.52,-56.98
27.58,-55.86
27.63,-54.92
27.67,-54.72
27.72,-55.36
27.76,-55.93
27.81,-56.13
27.86,-55.37
27.91,-55.72
27.96,-56.59
28.01,-56.92
28.07,-55.88
28.12,-56.06
28.17,-56.67
28.22,-56.3
28.28,-55.61
28.32,-55.84
28.37,-55.32
28.42,-54.97
28.46,-55.64
28.51,-55.43
28.56,-55.5
28.61,-55.88
28.66,-56.28
28.71,-56.13
28.76,-55.86
28.81,-56.05
28.86,-55.42
28.91,-55.81
28.96,-55.25
29,-55.68
29.05,-55.48
29.1,-55.46
29.15,-55.48
29.19,-54.82
29.24,-55.7
29.28,-54.85
29.33,-55.21
29.37,-56.47
29.42,-56.04
29.47,-55.64
29.52,-55.52
29.57,-55.62
29.62,-55.53
29.66,-55.19
29.71,-55.35
29.76,-55.86
29.81,-56.6
29.86,-56.36
29.91,-56.28
29.97,-56.6
30.02,-55.48
30.07,-56.93
30.12,-56.15
30.18,-56.28
30.23,-55.59
30.28,-56.67
30.33,-55.82
30.38,-56.01
30.43,-56.17
30.48,-56.21
30.53,-56
30.59,-55.71
30.64,-55.71
30.69,-55.71
30.74,-55.71
30.79,-55.71
30.84,-54.71
30.88,-55.69
30.93,-55.89
30.98,-55.61
31.03,-56.26
31.09,-56.78
31.14,-56.34
31.19,-56.46
31.25,-56.79
31.3,-56.24
31.36,-56.03
31.41,-55.97
31.46,-56.01
31.51,-56.84
31.56,-55.81
31.62,-57.36
31.67,-56.42
31.73,-54.87
31.77,-55.61
31.82,-55.99
31.87,-55.89
31.92,-54.71
31.96,-55.52
32.01,-54.24
32.06,-55.54
32.1,-55.9
32.15,-55.54
32.2,-55.96
32.25,-55.6
32.3,-55.37
32.35,-55.34
32.4,-55.84
32.45,-55.35
32.5,-55.27
32.55,-56.4
32.6,-56.64
32.65,-56.53
32.71,-56.31
32.76,-56.72
32.82,-56.29
32.87,-55.77
32.92,-56.32
32.97,-55.88
33.02,-55.37
33.07,-55.27
33.12,-55.29
33.17,-55.03
33.21,-55.42
33.26,-55.08
33.31,-54.93
33.36,-55.5
33.4,-55.39
33.45,-55.68
33.5,-55.37
33.55,-55.54
33.6,-54.95
33.65,-56.28
33.7,-55.33
33.75,-55.77
33.8,-56.36
33.86,-56.36
33.91,-56.36
33.97,-56.36
34.02,-56.36
34.08,-55.97
34.13,-55.42
34.18,-56.02
34.23,-56.05
34.29,-56.62
34.34,-56.33
34.4,-55.5
34.45,-55.42
34.49,-55.82
34.54,-54.89
34.59,-55.69
34.64,-55.04
34.69,-55.09
34.74,-55.79
34.78,-54.84
34.83,-54.96
34.88,-55.73
34.93,-55.43
34.98,-55.17
35.02,-54.67
35.07,-54.91
35.12,-55.38
35.17,-55.15
35.21,-54.53
35.26,-54.99
35.31,-55.43
35.36,-55.64
35.41,-55.24
35.45,-54.31
35.5,-55.73
35.55,-55.77
35.6,-55.12
35.65,-55.09
35.7,-55.23
35.75,-55.8
35.8,-55.47
35.85,-56.27
35.9,-55.1
35.95,-55.3
36,-55.42
36.05,-55.5
36.1,-56.26
36.15,-55.78
36.21,-55.67
36.26,-55.68
36.31,-55.31
36.36,-55.27
36.41,-55.46
36.46,-55.59
36.51,-55.36
36.56,-55.08
36.6,-55.67
36.65,-55.32
36.7,-55.33
36.75,-55.82
36.81,-55.96
36.86,-55.8
36.91,-55.5
36.96,-54.55
37.01,-54.2
37.05,-55.26
37.1,-55.3
37.15,-55.37
37.2,-54.43
37.24,-55
37.29,-54.38
37.34,-55.27
37.38,-54.36
37.43,-55.43
37.48,-54.36
37.53,-54.91
37.57,-53.92
37.61,-54
37.66,-54.01
37.7,-53.17
37.74,-54.27
37.78,-53.2
37.82,-52.58
37.86,-53.81
37.9,-54.7
37.95,-54.44
37.99,-55.06
38.04,-53.63
38.08,-53.35
38.12,-54.62
38.17,-54.74
38.22,-54.81
38.26,-53.6
38.31,-54.64
38.35,-54.08
38.4,-54.37
38.44,-54.61
38.48,-54.26
38.53,-54.16
38.57,-54.1
38.62,-54.04
38.66,-54.44
38.7,-54.67
38.75,-54.99
38.8,-53.94
38.84,-54.34
38.89,-54.26
38.93,-54.06
38.98,-55.4
39.02,-54.43
39.07,-53.91
39.11,-55.44
39.16,-55.08
39.21,-55.29
39.26,-55.29
39.31,-55.2
39.36,-55.46
39.41,-55.26
39.46,-55.28
39.51,-56.07
39.57,-56.28
39.62,-56.09
39.68,-55.3
39.73,-56.32
39.79,-55.22
39.84,-55.84
39.89,-55.15
39.94,-55.27
39.99,-54.76
40.04,-55.45
40.09,-55.07
40.14,-54.9
40.19,-55.8
40.24,-55.61
40.29,-55.57
40.34,-54.47
40.39,-54.89
40.44,-54.59
40.49,-55.72
40.54,-55.94
40.6,-55.78
40.65,-55.7
40.71,-55.77
40.76,-55.39
40.81,-55.21
40.87,-56.22
40.92,-55.31
40.97,-55.3
41.02,-54.91
41.07,-54.65
41.12,-55.63
41.17,-54.6
41.22,-54
41.27,-54.93
41.32,-54.86
41.37,-55.11
41.42,-55.83
41.47,-54.05
41.52,-55.62
41.57,-54.99
41.62,-55.85
41.67,-55.04
41.72,-55.53
41.78,-55.87
41.83,-55.43
41.89,-55.8
41.94,-55.81
41.99,-55.85
42.05,-56.16
42.11,-55.82
42.16,-55.5
42.21,-55.97
42.27,-54.83
42.32,-55.36
42.37,-55.6
42.42,-54.8
42.47,-54.81
42.52,-54.87
42.57,-55.78
42.62,-54.67
42.67,-55.7
42.73,-55.04
42.78,-55.15
42.83,-54.97
42.88,-54.45
42.92,-54.35
42.97,-54.57
43.02,-54.75
43.06,-54.35
43.11,-54.45
43.16,-54.98
43.2,-54.46
43.25,-55.47
43.3,-55.36
43.35,-54.16
43.4,-54.45
43.45,-54.72
43.5,-55.22
43.55,-55.4
43.6,-54.66
43.65,-54.92
43.7,-55.15
43.75,-54.68
43.8,-55.67
43.85,-55.84
43.9,-55.31
43.95,-55.16
44,-55.95
44.06,-55.79
44.11,-55.37
44.17,-55.96
44.22,-56.03
44.28,-55.79
44.33,-55.49
44.38,-54.73
44.43,-55.2
44.48,-55.89
44.54,-55.52
44.59,-55.72
44.64,-55.35
44.69,-55
44.74,-55.22
44.79,-55.15
44.84,-55.05
44.9,-55.05
44.95,-55.1
45,-55.11
45.05,-54.65
45.1,-54.6
45.14,-54.27
45.19,-54.64
45.24,-54.61
45.28,-54.59
45.33,-54.3
45.38,-54.57
45.42,-54.34
45.47,-54.7
45.52,-54.5
45.56,-53.4
45.61,-54.78
45.65,-54
45.7,-54.37
45.74,-53.36
45.78,-53.99
45.83,-53.44
45.87,-54.17
45.91,-52.57
45.95,-53.23
45.99,-53.89
46.04,-54.66
46.08,-53.71
46.12,-53.29
46.17,-54.22
46.21,-54.2
46.25,-53.93
46.3,-53.95
46.34,-53.44
46.38,-53.58
46.43,-52.73
46.47,-52.57
46.5,-52.25
46.54,-53.38
46.58,-53.4
46.62,-53.38
46.67,-53.37
46.71,-52.98
46.75,-54.25
46.79,-53.86
46.84,-54.39
46.89,-53.61
46.93,-53.92
46.97,-54.08
47.02,-53.82
47.06,-54.26
47.11,-54.31
47.16,-53.83
47.2,-54.17
47.25,-53.03
47.29,-54.28
47.33,-54.08
47.38,-54.61
47.43,-54.18
47.47,-54.57
47.52,-54.21
47.57,-54.58
47.62,-54.79
47.66,-53.86
47.71,-53.86
47.76,-54.58
47.8,-55
47.85,-54.07
47.9,-54.66
47.95,-56.03
48,-55.23
48.06,-55.14
48.11,-55.82
48.16,-55.29
48.22,-54.85
48.27,-55.34
48.32,-54.43
48.37,-54.06
48.41,-54.5
48.46,-54.69
48.51,-54.73
48.56,-55.64
48.61,-55.01
48.66,-54.59
48.71,-55.65
48.77,-55.54
48.82,-54.73
48.87,-54.59
48.92,-54.22
48.96,-55.21
49.01,-55.02
49.06,-55.13
49.11,-55.7
49.17,-54.91
49.22,-55.57
49.27,-55
49.32,-55.64
49.37,-54.91
49.43,-55.53
49.48,-54.74
49.53,-54.25
49.57,-55.09
49.62,-55.07
49.67,-53.94
49.72,-55.21
49.77,-55.24
49.82,-53.88
49.87,-55.3
49.92,-54.99
49.97,-55.56
50.02,-54.59
50.07,-54.18
50.12,-54.65
50.17,-54.06
50.21,-54.52
50.26,-55.05
50.31,-54.9
50.36,-54.55
50.41,-54.69
50.46,-53.55
50.5,-54.71
50.55,-54.78
50.6,-55.63
50.65,-54.11
50.7,-54.49
50.75,-55.19
50.8,-54.27
50.85,-54.98
50.9,-54.99
50.95,-54.54
50.99,-54.61
51.04,-55.4
51.09,-54.88
51.14,-55.04
51.19,-54.81
51.24,-54.75
51.29,-54.75
51.34,-54.83
51.39,-55.06
51.44,-54.45
51.48,-54.27
51.53,-53.88
51.57,-55.06
51.62,-54.55
51.67,-54.98
51.72,-54.12
51.77,-54.42
51.81,-53.45
51.85,-54.72
51.9,-54.18
51.95,-54.09
51.99,-52.85
52.03,-54.16
52.07,-53.43
52.12,-54.1
52.16,-54.96
52.21,-54.22
52.26,-54.74
52.31,-54.24
52.35,-54.44
52.4,-53.82
52.44,-53.72
52.49,-54.63
52.53,-53.83
52.58,-54.08
52.62,-53.47
52.67,-54.36
52.71,-53.98
52.76,-52.83
52.8,-53.92
52.84,-54.12
52.89,-54.41
52.93,-54.49
52.98,-54.13
53.03,-52.54
53.07,-53.74
53.11,-54.1
53.15,-53.18
53.19,-53.43
53.24,-53.18
53.28,-53.39
53.32,-53.03
53.36,-53.07
53.4,-53.28
53.44,-53.48
53.48,-54.11
53.53,-54.09
53.57,-53.96
53.62,-54.8
53.67,-54.39
53.71,-54.33
53.76,-53.49
53.8,-53.99
53.85,-53.54
53.89,-54.27
53.94,-54.28
53.98,-54.38
54.03,-54.28
54.08,-54.67
54.13,-53.45
54.17,-53.8
54.21,-53.74
54.26,-53.7
54.3,-54.93
54.35,-54.7
54.4,-54.5
54.44,-54.94
54.49,-54.99
54.54,-54.39
54.59,-55.24
54.64,-55.32
54.7,-55.06
54.75,-55.1
54.8,-53.79
54.84,-54.41
54.89,-54.56
54.94,-54
54.98,-53.74
55.03,-54.47
55.07,-54.51
55.12,-53.83
55.17,-54.7
55.22,-54.66
55.26,-54.09
55.31,-54.48
55.36,-55.16
55.41,-54.57
55.46,-54.48
55.51,-54.48
55.55,-54.6
55.6,-54.94
55.65,-55.32
55.71,-55.78
55.76,-54.89
55.81,-54.9
55.86,-55.54
55.92,-55.71
55.97,-54.55
56.02,-56.05
56.08,-54.99
56.13,-54.8
56.18,-54.38
56.23,-54.7
56.28,-55.63
56.33,-54.36
56.38,-54.82
56.42,-54.65
56.47,-54.82
56.52,-54.25
56.57,-54.26
56.62,-55.08
56.67,-54.41
56.72,-54.92
56.77,-54.42
56.81,-54.26
56.86,-54.47
56.9,-53.61
56.95,-54.66
56.99,-54.26
57.04,-54.28
57.09,-53.79
57.13,-53.51
57.17,-54.07
57.22,-53.27
57.26,-53.75
57.3,-53.73
57.35,-55.4
57.39,-54.31
57.44,-53.99
57.49,-53.73
57.53,-54.27
57.58,-54.39
57.63,-53.69
57.67,-53.32
57.71,-54.53
57.76,-54.79
57.81,-54.67
57.86,-54.14
57.9,-54.11
57.95,-53.91
57.99,-54.06
58.04,-53.41
58.08,-54.51
58.13,-53.52
58.17,-53.97
58.21,-52.73
58.25,-53.92
58.3,-53.18
58.34,-53.07
58.38,-53.72
58.42,-53.63
58.47,-54.22
58.51,-53
58.55,-52.59
58.59,-53.4
58.63,-53.37
58.68,-53.6
58.72,-53.01
58.76,-53.69
58.8,-53.8
58.85,-53.79
58.89,-53.55
58.94,-53.7
58.98,-53.62
59.02,-53.66
59.07,-53.41
59.11,-53.25
59.15,-54.59
59.2,-52.64
59.24,-53.82
59.29,-54.15
59.33,-54.86
59.38,-53.86
59.43,-52.95
59.47,-54.1
59.51,-54.16
59.56,-53.9
59.61,-53.71
59.65,-54.81
59.7,-54.59
59.75,-53.3
59.79,-53.7
59.83,-53.87
59.88,-53.61
59.92,-54.85
59.97,-54.22
60.02,-54.32
60.07,-54.47
60.12,-54.64
60.17,-54.97
60.22,-54.56
60.27,-54.47
60.31,-55.01
60.36,-54.62
60.41,-54.13
60.46,-54.9
60.51,-54.38
60.56,-53.87
60.6,-53.68
60.65,-54.75
60.7,-54.49
60.75,-54.81
60.8,-55
60.85,-54.33
60.9,-54.13
60.94,-54.73
60.99,-55.08
61.04,-54.14
61.09,-54.68
61.14,-54.5
61.19,-54.83
61.24,-54.83
61.29,-54.86
61.34,-54.64
61.39,-55.48
61.45,-55.05
61.5,-54.54
61.55,-55
61.6,-55.24
61.65,-55.08
61.71,-54.93
61.76,-55.02
61.81,-55.17
61.86,-55.54
61.92,-55.51
61.97,-56.07
62.03,-55.37
62.09,-55.21
62.14,-55.41
62.2,-55.33
62.25,-55.68
62.31,-56.03
62.37,-55.74
62.43,-54.78
62.48,-56.01
62.54,-56.07
62.6,-55.99
62.66,-55.8
62.71,-55.52
62.77,-56.35
62.83,-56.59
62.89,-55.91
62.95,-55.81
63.01,-57.11
63.08,-56.53
63.14,-56.5
63.2,-56.44
63.27,-56.14
63.33,-56.5
63.39,-56.23
63.45,-56.05
63.51,-55.83
63.56,-54.54
63.62,-54.34
63.67,-55.62
63.72,-54.25
63.77,-55.98
63.83,-55.26
63.88,-55.35
63.94,-54.72
63.99,-55.02
64.04,-55.85
64.1,-56.42
64.16,-55.81
64.22,-56.08
64.28,-56.46
64.34,-55.96
64.4,-55.59
64.46,-56.16
64.52,-56.33
64.58,-55.9
64.64,-56.34
64.7,-55.56
64.76,-56.49
64.82,-56.13
64.88,-56.04
64.94,-56.22
65,-55.23
65.05,-55.32
65.11,-56.8
65.17,-55.75
65.23,-56.19
65.29,-55.94
65.35,-56.26
65.42,-56.66
65.48,-56
65.54,-56.61
65.6,-55.82
65.66,-56.17
65.72,-56.52
65.79,-56.6
65.85,-56.15
65.91,-56.44
65.98,-56.69
66.04,-56.64
66.11,-56.23
66.17,-56.74
66.24,-56.18
66.3,-56.29
66.36,-56.11
66.42,-56.42
66.48,-55.51
66.54,-56.83
66.61,-55.96
66.67,-55.81
66.73,-56.36
66.79,-56.51
66.85,-55.82
66.91,-56.2
66.98,-56.63
67.04,-56.09
67.1,-56.63
67.17,-56.54
67.23,-56.63
67.3,-56.04
67.36,-56.25
67.42,-56.71
67.48,-56.01
67.55,-55.24
67.6,-56.51
67.67,-56.53
67.73,-56.5
67.79,-55.02
67.85,-56.42
67.91,-56.15
67.97,-55.89
68.03,-56.55
68.09,-56.75
68.16,-56.81
68.22,-56.66
68.29,-55.42
68.35,-55.61
68.4,-55.31
68.46,-55.1
68.52,-55.63
68.57,-55.35
68.63,-56.04
68.69,-55.61
68.75,-56.67
68.82,-56.33
68.88,-56.47
68.94,-56.96
69.01,-56.31
69.07,-56.98
69.14,-56.25
69.2,-56.58
69.27,-56.45
69.33,-56.62
69.39,-55.31
69.45,-56.42
69.51,-56.4
69.57,-56
69.63,-55.06
69.69,-55.42
69.74,-55.12
69.8,-55.7
69.85,-56.03
69.91,-55.27
69.97,-55.37
70.03,-55.09
70.08,-55.41
70.14,-54.98
70.19,-54.68
70.24,-55.47
70.3,-54.39
70.35,-54.8
70.4,-54.7
70.45,-54.26
70.5,-53.71
70.55,-54.27
70.59,-53.98
70.64,-53.93
70.69,-53.55
70.73,-53.98
70.78,-53.77
70.83,-54.19
70.87,-53.74
70.92,-55.34
70.98,-55.08
71.03,-53.54
71.08,-54.85
71.13,-54.57
71.18,-54.04
71.23,-53.97
71.28,-54
71.33,-54.77
71.38,-55.06
71.44,-54.64
71.49,-54.72
71.54,-53.89
71.59,-54.66
71.64,-54.74
71.7,-54.82
71.75,-54.98
71.8,-54.92
71.86,-54.66
71.91,-55.04
71.96,-55.09
72.02,-54.68
72.07,-55.55
72.13,-54.93
72.19,-55.24
72.24,-55.12
72.3,-56.06
72.36,-56.38
72.43,-55.62
72.49,-55.91
72.55,-56.12
72.61,-56.12
72.67,-55.83
72.73,-55.69
72.79,-55.54
72.84,-55.53
72.9,-55.17
72.96,-55.63
73.01,-54.89
73.07,-55.14
73.12,-54.79
73.17,-54.75
73.23,-55.61
73.28,-54.62
73.33,-55.2
73.39,-54.65
73.44,-55.39
73.5,-54.1
73.54,-54.93
73.6,-54.65
73.65,-54.55
73.7,-54.46
73.75,-54.94
73.8,-54.48
73.85,-54.28
73.9,-53.12
73.95,-53.86
73.99,-53.96
74.04,-54.01
74.09,-53.49
74.14,-54.24
74.18,-53.12
74.23,-53.6
74.27,-54.21
74.32,-53.54
74.37,-53.77
74.41,-53.45
74.46,-53.23
74.5,-52.39
74.54,-53.35
74.59,-52.93
74.63,-52.88
74.67,-53.65
74.72,-53.61
74.77,-53.63
74.82,-54.05
74.86,-53.83
74.91,-54.27
74.96,-53.6
75.01,-54.93
75.06,-54.23
75.11,-54.16
75.16,-54.08
75.21,-54.27
75.27,-54.5
75.32,-54.22
75.37,-54.78
75.42,-54.99
75.47,-54.36
75.53,-55.17
75.58,-54.93
75.64,-55.36
75.69,-54.84
75.75,-55.5
75.81,-55.71
75.87,-55.35
75.93,-54.88
75.98,-55.33
76.04,-54.68
76.09,-54.74
76.14,-55.65
76.2,-55.3
76.26,-55.15
76.31,-54.49
76.37,-54.63
76.42,-56.04
76.48,-54.45
76.53,-55.25
76.59,-54.58
76.64,-54.55
76.69,-55.24
76.75,-55.1
76.81,-54.86
76.86,-55.12
76.92,-54.8
76.97,-54.56
77.02,-54.53
77.07,-54.75
77.13,-55.07
77.18,-53.94
77.23,-54.82
77.28,-54.28
77.33,-54.08
77.38,-54.8
77.44,-55.44
77.49,-54.62
77.55,-54.76
77.6,-55.17
77.66,-55.32
77.71,-55.09
77.77,-54.81
77.83,-54.95
77.88,-55.02
77.93,-54.88
77.99,-54.37
78.04,-54.47
78.09,-54.94
78.15,-54.27
78.2,-54.28
78.25,-55.63
78.31,-55.09
78.36,-54.07
78.41,-54.33
78.47,-54.63
78.52,-54.42
78.57,-54.01
78.62,-54.43
78.67,-54.29
78.72,-53.8
78.77,-54.02
78.82,-54.84
78.87,-54.02
78.92,-54.23
78.97,-54.27
79.02,-55.49
79.08,-53.97
79.13,-54.67
79.18,-54.11
79.23,-54.81
79.28,-53.4
79.33,-53.75
79.37,-53.68
79.42,-54.31
79.47,-53.82
79.52,-54.79
79.57,-53.41
79.62,-54.52
79.67,-53.25
79.72,-53.23
79.76,-54.29
79.81,-53.65
79.86,-54.03
79.91,-54.58
79.96,-54.21
80.01,-53.88
80.06,-53.84
80.11,-53.72
80.15,-52.97
80.2,-54.38
80.25,-53.41
80.3,-54.18
80.35,-53.16
80.39,-53.72
80.44,-54.13
80.49,-53.76
80.54,-53.72
80.59,-53.67
80.63,-53.3
80.68,-53.66
80.73,-53.81
80.77,-53.35
80.82,-53.41
80.87,-54.02
80.92,-53.49
80.97,-54.03
81.02,-53.88
81.07,-53.33
81.11,-53.86
81.16,-54.25
81.21,-53.96
81.26,-53.53
81.31,-53.02
81.36,-53.42
81.4,-54.07
81.45,-54.19
81.5,-53.39
81.55,-53.22
81.59,-53.49
81.64,-53.65
81.68,-52.03
81.72,-53.14
81.77,-52.65
81.81,-53.47
81.85,-53.23
81.9,-53.02
81.94,-53.95
81.99,-53.42
82.04,-53.69
82.08,-52.95
82.13,-53.61
82.17,-52.91
82.22,-52.73
82.26,-52.16
82.3,-52.33
82.34,-52.63
82.39,-52.28
82.43,-52.82
82.47,-52.84
82.51,-52.41
82.55,-53.28
82.6,-52.55
82.64,-51.61
82.68,-52.9
82.72,-52.93
82.76,-52.11
82.8,-52.74
82.85,-52.83
82.89,-52.93
82.93,-52.4
82.97,-52.85
83.02,-52.07
83.06,-52.76
83.1,-51.85
83.14,-52.05
83.18,-52.01
83.22,-52.21
83.26,-51.78
83.29,-51.66
83.33,-52.86
83.37,-52.4
83.42,-52.56
83.46,-52.68
83.5,-52
83.54,-52.97
83.59,-52.71
83.63,-52.25
83.67,-52.51
83.72,-51.92
83.76,-51.72
83.8,-53.48
83.84,-52.32
83.89,-52.92
83.93,-52.53
83.97,-51.71
84.01,-53.15
84.05,-52.38
84.1,-53.09
84.14,-52.55
84.18,-53.61
84.23,-52.81
84.28,-53.01
84.32,-53.25
84.37,-52.64
84.41,-52.63
84.45,-53.27
84.5,-52.9
84.54,-53.12
84.59,-52.7
84.63,-52.54
84.67,-52.59
84.72,-53.2
84.77,-53.71
84.81,-53.01
84.86,-52.21
84.9,-53.83
84.95,-53.27
85,-53.02
85.05,-53.51
85.09,-53.51
85.14,-53
85.19,-52.03
85.23,-53.35
85.28,-53.31
85.32,-53.14
85.37,-53.1
85.42,-53.93
85.47,-52.94
85.52,-53.63
85.56,-53.67
85.61,-53.74
85.66,-53.24
85.71,-53.47
85.76,-54.05
85.81,-54
85.86,-53.72
85.91,-54.02
85.96,-53.32
86.01,-53.4
86.06,-53.49
86.11,-53.15
86.16,-54.48
86.21,-53.77
86.26,-53.82
86.31,-53.87
86.36,-53.46
86.41,-54.23
86.47,-54.08
86.52,-54.38
86.57,-54.47
86.63,-54.37
86.69,-53.39
86.74,-54.47
86.79,-54.44
86.84,-54.52
86.9,-53.83
86.95,-54.76
87.01,-54.06
87.06,-55.11
87.12,-55.35
87.18,-55.65
87.25,-55.73
87.31,-54.98
87.37,-54.09
87.42,-55.24
87.48,-55.27
87.54,-54.81
87.6,-55.13
87.66,-54.05
87.71,-55.36
87.77,-54.13
87.83,-55.15
87.89,-54.89
87.95,-54.38
88,-54.5
88.06,-54.24
88.11,-55.13
88.17,-54.84
88.23,-54.68
88.29,-55.19
88.35,-54.4
88.4,-54.91
88.46,-55.43
88.52,-54.42
88.57,-54.72
88.63,-54.58
88.69,-54.29
88.74,-54.1
88.79,-54.24
88.85,-53.78
88.9,-54.13
88.95,-53.68
89.01,-54.72
89.06,-54.71
89.12,-54.09
89.17,-54.66
89.23,-54.65
89.29,-53.5
89.34,-53.68
89.39,-53.85
89.44,-53.71
89.49,-53.7
89.54,-53.91
89.59,-54.64
89.65,-54.69
89.71,-53.58
89.76,-53.81
89.81,-53.7
89.86,-53.98
89.91,-53.29
89.96,-52.65
90.01,-53.4
90.06,-53.63
90.11,-53.73
90.17,-53.66
90.22,-53.88
90.27,-52.89
90.32,-54.57
90.38,-54.24
90.44,-53.9
90.49,-53.57
90.54,-54.68
90.6,-54.74
90.66,-54.68
90.72,-54.37
90.78,-54.2
90.83,-53.91
90.89,-53.35
90.94,-53.41
90.99,-54.01
91.05,-53.99
91.1,-53.61
91.16,-54.8
91.21,-54.15
91.27,-54.76
91.33,-54.05
91.38,-54.21
91.44,-54.85
91.5,-53.04
91.55,-53.52
91.6,-54.02
91.66,-54.27
91.71,-54.26
91.77,-53.54
91.83,-53.96
91.88,-53.76
91.94,-53.21
91.99,-53.58
92.04,-53.82
92.09,-53.81
92.15,-54.18
92.2,-54.26
92.26,-54.04
92.32,-53.7
92.37,-52.7
92.42,-53.61
92.47,-54.05
92.52,-53.43
92.58,-53.43
92.63,-52.87
92.68,-54.12
92.73,-53.45
92.79,-53.44
92.84,-53.46
92.89,-53.28
92.94,-53.97
93,-54.42
93.05,-53.19
93.1,-53.74
93.16,-53.6
93.21,-53.99
93.26,-52.99
93.32,-53.09
93.36,-53.12
93.41,-53.16
93.46,-53.28
93.52,-54.31
93.57,-53.56
93.63,-53.46
93.68,-52.74
93.73,-53.97
93.78,-53.28
93.83,-53.1
93.88,-53.31
93.93,-53.51
93.98,-53.23
94.03,-53.08
94.08,-53.09
94.13,-52.89
94.18,-52.83
94.23,-53.99
94.29,-52.72
94.34,-53.55
94.39,-54.03
94.44,-53.03
94.49,-53.66
94.54,-53.74
94.59,-53.64
94.65,-54.57
94.71,-53.53
94.76,-53.05
94.8,-52.24
94.85,-51.96
94.89,-53.1
94.94,-52.46
94.99,-52.67
95.03,-53.08
95.08,-53.14
95.13,-52.82
95.18,-53.72
95.23,-53.97
95.29,-53.48
95.34,-53.78
95.39,-53.94
95.45,-53.72
95.5,-53.5
95.56,-53.9
95.61,-53.09
95.66,-53.75
95.71,-53.86
95.77,-52.93
95.82,-53.63
95.87,-53.56
95.92,-52.12
95.97,-53.69
96.02,-54.01
96.08,-53.12
96.13,-53.5
96.18,-53.06
96.23,-52.72
96.28,-53.33
96.33,-53.74
96.39,-53.28
96.44,-52.48
96.49,-54.28
96.54,-53.82
96.6,-53.44
96.65,-52.67
96.7,-53.94
96.75,-53.07
96.8,-53.63
96.86,-53.03
96.91,-53.39
96.96,-53.23
97.01,-54.12
97.06,-52.72
97.12,-53.56
97.17,-53.16
97.22,-52.95
97.27,-53.1
97.32,-53.25
97.37,-53.07
97.42,-53.75
97.47,-53.49
97.52,-52.83
97.58,-53.91
97.63,-53.43
97.68,-53.56
97.74,-52.46
97.78,-52.96
97.83,-53.41
97.89,-53.85
97.94,-53.72
97.99,-53.54
98.05,-52.62
98.1,-53.21
98.15,-53.11
98.2,-54.11
98.25,-52.85
98.3,-53.94
98.36,-53.24
98.41,-53.54
98.46,-52.73
98.51,-53.41
98.56,-52.63
98.61,-53.32
98.66,-53.82
98.72,-53.9
98.77,-53.28
98.83,-53.91
98.88,-53.24
98.93,-54.11
98.99,-53.02
99.04,-53.45
99.09,-53.41
99.15,-54.34
99.21,-54.28
99.26,-53.99
99.32,-53.51
99.37,-54.01
99.43,-53.67
99.48,-53.42
99.54,-53.25
99.59,-53.8
99.64,-53.27
99.69,-53.31
99.74,-53.59
99.8,-53.64
99.85,-54.38
99.9,-53.18
99.96,-53.78
100.01,-53.35
100.06,-53.09
100.11,-53.63
100.17,-53.27
100.22,-53.04
100.27,-53.54
100.32,-53.43
100.37,-53.8
100.43,-52.97
100.48,-53.59
100.53,-53.17
100.58,-54.01
100.63,-53.56
100.69,-53.34
100.74,-53.32
100.79,-53.23
100.84,-53.02
100.89,-53.94
100.95,-53.84
101,-54.03
101.06,-53.83
101.11,-53.27
101.17,-53.4
101.22,-53.08
101.27,-52.76
101.32,-53.1
101.36,-52.08
101.41,-52.72
101.46,-53.39
101.51,-53
101.56,-53.66
101.61,-53.51
101.67,-53.63
101.72,-53.23
101.77,-53.57
101.83,-53.34
101.88,-53.37
101.93,-53.31
101.98,-53.89
102.04,-53.62
102.09,-53.44
102.14,-53.33
102.2,-53.82
102.25,-54.92
102.31,-53.68
102.37,-53.79
102.42,-54.04
102.48,-53.63
102.54,-53.62
102.59,-54.16
102.65,-53.37
102.7,-54.23
102.76,-54.26
102.82,-54.41
102.88,-54.07
102.94,-53.92
102.99,-54.71
103.05,-54.51
103.11,-55
103.18,-54.24
103.24,-55.51
103.3,-55.4
103.37,-54.96
103.43,-55.99
103.5,-55.71
103.57,-55.18
103.64,-55.88
103.71,-54.65
103.77,-55.56
103.84,-54.47
103.9,-55.16
103.96,-54.71
104.02,-54.62
104.08,-55.51
104.15,-55.05
104.21,-53.92
104.27,-54.57
104.33,-54.92
104.39,-54.47
104.45,-54.45
104.51,-54.25
104.57,-54.77
104.63,-54.34
104.69,-53.96
104.75,-54.06
104.8,-54.01
104.86,-54
104.92,-54.24
104.98,-54.13
105.03,-53.36
105.09,-53.89
105.14,-54.67
105.2,-54.6
105.26,-53.91
105.32,-54.09
105.38,-54.14
105.44,-53.93
105.5,-53.87
105.55,-54.09
105.61,-54.15
105.67,-54.08
105.73,-54.09
105.79,-54.21
105.84,-54.13
105.9,-52.84
105.96,-53.8
106.01,-53.99
106.07,-53.2
106.12,-53.73
106.18,-53.82
106.23,-53.35
106.29,-53.07
106.34,-53.4
106.39,-52.9
106.45,-53.15
106.5,-52.81
106.55,-52.97
106.6,-52.34
106.65,-53.05
106.7,-53.26
106.76,-53.98
106.82,-53.76
106.88,-53.48
106.93,-53.06
106.99,-53.72
107.05,-53.32
107.1,-53.89
107.16,-54.06
107.22,-53.77
107.28,-53.68
107.34,-54.7
107.41,-54.16
107.47,-54.29
107.53,-53.68
107.59,-54.46
107.65,-54.56
107.72,-54.51
107.78,-54.89
107.85,-54.82
107.92,-55.07
107.99,-55.33
108.06,-55.25
108.13,-55.05
108.2,-55.41
108.27,-55.6
108.34,-55.89
108.42,-55.23
108.49,-55.64
108.56,-55.26
108.63,-55.54
108.71,-55.05
108.78,-55.85
108.85,-55.16
108.92,-55.27
108.99,-56.2
109.07,-55.28
109.14,-54.48
109.21,-55.21
109.28,-55.19
109.35,-54.49
109.42,-55.7
109.49,-54.82
109.56,-54.66
109.62,-54.82
109.69,-54.71
109.76,-54.57
109.82,-54.23
109.89,-55.59
109.96,-54.77
110.03,-53.68
110.09,-54.61
110.15,-55.32
110.22,-54.85
110.29,-54.67
110.36,-53.69
110.42,-54.45
110.48,-54.41
110.55,-54.39
110.61,-54.71
110.68,-54.45
110.75,-54.18
110.81,-54.35
110.88,-54.14
110.94,-54.05
111.01,-54.65
111.07,-54.22
111.14,-54.35
111.2,-53.54
111.26,-54.57
111.33,-54.8
111.4,-54.08
111.47,-54.66
111.53,-54.45
111.6,-53.88
111.66,-54.55
111.73,-54.61
111.8,-54.46
111.87,-54.41
111.93,-54.06
112,-54.57
112.07,-54.72
112.14,-53.88
112.2,-54.04
112.26,-54.13
112.33,-54.91
112.4,-53.91
112.46,-53.44
112.53,-54.48
112.59,-53.35
112.65,-53.37
112.71,-53.87
112.78,-54.02
112.84,-53.86
112.91,-53.64
112.97,-53.56
113.03,-53.69
113.1,-54.07
113.16,-52.79
113.22,-53.35
113.28,-53.5
113.34,-53.19
113.4,-53.58
113.47,-54.24
113.53,-53.31
113.59,-53.15
113.65,-54.09
113.72,-53.13
113.78,-52.87
113.83,-52.57
113.89,-53.2
113.95,-52.87
114,-52.88
114.06,-52.89
114.12,-52.11
114.17,-53.32
114.23,-52.83
114.28,-53.07
114.34,-52.55
114.4,-52.21
114.45,-53.04
114.51,-53.22
114.57,-53.05
114.63,-52.68
114.68,-52.41
114.74,-51.71
114.79,-51.99
114.84,-52.66
114.9,-52.99
114.96,-52.15
115.01,-52.47
115.06,-51.48
115.12,-52.25
115.17,-52.2
115.22,-52.07
115.28,-51.51
115.33,-52.69
115.38,-52.16
115.44,-52.69
115.49,-52.21
115.55,-52.28
115.6,-51.73
115.65,-52.5
115.71,-52.69
115.76,-51.73
115.82,-51.44
115.87,-52.43
115.92,-51.8
115.98,-51.67
116.03,-52.44
116.09,-51.82
116.14,-51.71
116.19,-53.07
116.25,-51.9
116.3,-51.11
116.35,-51.53
116.4,-51.62
116.45,-51.37
116.5,-51.41
116.55,-51.76
116.6,-51.88
116.65,-51.38
116.7,-51.01
116.75,-51.43
116.81,-51.97
116.86,-51.07
116.91,-51.3
116.95,-50.96
117,-51.41
117.05,-52.16
117.1,-50.83
117.15,-51.27
117.2,-51.17
117.25,-51.17
117.29,-50.79
117.34,-50.34
117.39,-51.12
117.43,-51.2
117.48,-50.62
117.53,-50.88
117.58,-50.89
117.62,-50.59
117.67,-50.89
117.72,-51.1
117.77,-50.35
117.81,-50.93
117.86,-50.34
117.91,-51.13
117.95,-51.11
118,-49.6
118.04,-50.21
118.09,-49.82
118.13,-50.78
118.18,-51.35
118.22,-50.56
118.27,-50.78
118.32,-51.09
118.37,-50.67
118.41,-50.25
118.46,-50.37
118.5,-51.08
118.55,-50.64
118.6,-50.89
118.64,-51.01
118.69,-50.7
118.74,-50.38
118.78,-50.72
118.83,-50.41
118.87,-50.43
118.92,-49.77
118.96,-50.58
119.01,-49.69
119.05,-50.46
119.09,-50.16
119.14,-50.53
119.18,-50.68
119.23,-50.26
119.27,-50.43
119.32,-50.48
119.36,-50.27
119.41,-51.05
119.46,-50.88
119.5,-49.93
119.54,-50.28
119.59,-49.84
119.63,-50.81
119.68,-50.25
119.72,-50.2
119.76,-49.27
119.8,-50.34
119.84,-50.43
119.89,-50.18
119.93,-50.53
119.98,-50.69
120.02,-50.12
120.07,-49.92
120.11,-50.35
120.15,-49.48
120.2,-50.56
120.24,-49.49
120.28,-49.74
120.32,-49.9
120.36,-49.65
120.4,-50.09
120.45,-50.13
120.49,-49.84
120.53,-50
120.58,-50.43
120.62,-50.14
120.66,-49.94
120.71,-50.22
120.75,-50.14
120.79,-49.7
120.83,-49.96
120.88,-49.81
120.92,-49.89
120.96,-49.75
121,-49.59
121.04,-49.16
121.08,-50.23
121.12,-50.27
121.16,-49.07
121.2,-49.9
121.24,-49.97
121.29,-49.97
121.33,-49.95
121.37,-49.8
121.41,-49.92
121.45,-49.35
121.49,-49.5
121.53,-48.79
121.57,-49.7
121.61,-50.42
121.65,-49.41
121.69,-49.31
121.73,-49.71
121.77,-49.84
121.81,-49.59
121.86,-49.33
121.9,-49.97
121.94,-50.72
121.98,-50
122.03,-49.86
122.07,-50.22
122.11,-49.87
122.15,-50.05
122.2,-49.76
122.24,-49.52
122.28,-49.29
122.32,-49.76
122.36,-49.19
122.4,-49.54
122.44,-50.26
122.48,-49.91
122.52,-49.61
122.56,-50.03
122.6,-49.91
122.64,-49.48
122.68,-49.47
122.72,-49.63
122.76,-49.99
122.8,-49.33
122.84,-49.36
122.88,-49.56
122.92,-50.33
122.96,-49.25
123,-49.59
123.04,-49.48
123.08,-49.76
123.12,-49.24
123.16,-50.76
123.2,-49.23
123.24,-49.33
123.28,-49.89
123.32,-50.26
123.36,-49.18
123.41,-50.26
123.45,-49.5
123.49,-49.77
123.53,-48.84
123.57,-49.89
123.61,-50.08
123.65,-49.26
123.69,-48.97
123.73,-49.09
123.77,-49.36
123.81,-49.8
123.85,-48.68
123.88,-49.11
123.92,-49.57
123.96,-48.97
124,-49.89
124.04,-50.45
124.09,-48.94
124.12,-49.22
124.16,-49.36
124.2,-48.19
124.24,-49.11
124.27,-48.57
124.31,-48.12
124.35,-49.64
124.39,-48.89
124.42,-49.19
124.46,-48.6
124.5,-49.99
124.54,-49.96
124.59,-50.18
124.63,-49.57
124.67,-49.52
124.71,-50.41
124.75,-50.28
124.8,-49.5
124.84,-49.66
124.88,-49.16
124.92,-49.87
124.96,-49.15
125,-50.16
125.04,-50.22
125.09,-49.51
125.13,-50.4
125.17,-49.81
125.22,-49.32
125.26,-49.52
125.3,-49.73
125.34,-50.13
125.38,-49.45
125.43,-49.49
125.47,-49.25
125.51,-49.55
125.55,-49.88
125.59,-49.76
125.63,-49.9
125.67,-49.93
125.72,-49.93
125.76,-49.62
125.8,-50.57
125.85,-50.72
125.9,-49.35
125.94,-49.72
125.98,-50.03
126.02,-50.12
126.06,-49.38
126.11,-50.18
126.15,-49.22
126.19,-50.13
126.23,-50.17
126.28,-49.37
126.32,-49.47
126.36,-50.63
126.4,-50
126.45,-50.51
126.5,-50.34
126.54,-49.76
126.58,-49.97
126.63,-49.54
126.67,-49.41
126.71,-49.6
126.75,-48.96
126.79,-48.77
126.83,-49.17
126.87,-49.14
126.9,-48.39
126.94,-48.92
126.98,-48.35
127.02,-49.26
127.05,-48.79
127.09,-48.22
127.13,-48.82
127.16,-49.26
127.2,-49.38
127.24,-49.21
127.28,-48.73
127.32,-48.54
127.36,-49.44
127.4,-49.41
127.44,-49.18
127.48,-48.54
127.51,-47.95
127.55,-49.03
127.59,-48.52
127.62,-48.38
127.66,-49.1
127.7,-48.4
127.74,-48.22
127.77,-48.46
127.81,-48.58
127.85,-47.42
127.88,-48.37
127.91,-47.75
127.95,-47.57
127.98,-47.35
128.01,-48.16
128.05,-47.86
128.08,-48.27
128.11,-48.07
128.15,-48.36
128.18,-47.37
128.22,-48.68
128.25,-47.09
128.28,-47.84
128.32,-48.63
128.35,-47.53
128.38,-47.98
128.41,-47.08
128.44,-47.07
128.47,-47
128.51,-46.32
128.54,-47.12
128.57,-47.76
128.6,-47.38
128.63,-46.46
128.66,-46.35
128.69,-47.42
128.73,-47.84
128.76,-47.02
128.79,-46.83
128.82,-46.96
128.86,-47.7
128.89,-47.01
128.92,-47.28
128.96,-48.54
128.99,-47.43
129.03,-47.29
129.06,-46.75
129.09,-47.73
129.13,-48
129.16,-47.09
129.19,-47.43
129.22,-47.36
129.26,-46.77
129.29,-47.97
129.32,-47.92
129.36,-47.86
129.39,-46.76
129.43,-47.68
129.46,-47.9
129.49,-47.29
129.53,-47.64
129.56,-47.46
129.59,-47.46
129.63,-47.45
129.66,-47.63
129.7,-48.52
129.73,-47.99
129.77,-47.38
129.8,-47.4
129.84,-47.69
129.87,-47.48
129.91,-47.62
129.94,-48.3
129.98,-48.07
130.01,-47.72
130.05,-47.09
130.08,-48.78
130.12,-48.21
130.16,-47.89
130.19,-48.29
130.23,-48.41
130.27,-48.07
130.31,-47.99
130.34,-48.67
130.38,-48.51
130.42,-47.39
130.46,-49.29
130.5,-49.08
130.54,-48.29
130.58,-48.81
130.61,-48.96
130.66,-49.31
130.7,-49.15
130.74,-49.11
130.78,-49.31
130.82,-49.18
130.87,-49.87
130.91,-49.27
130.95,-49.11
131,-49.22
131.04,-49.33
131.09,-49.18
131.13,-49.41
131.17,-49.98
131.22,-49.36
131.26,-49.21
131.31,-49.51
131.35,-49.11
131.4,-49.7
131.44,-49.7
131.49,-50.82
131.54,-50.29
131.59,-50.22
131.64,-50.36
131.69,-50.36
131.74,-50.83
131.8,-50.62
131.85,-50.83
131.9,-50.91
131.96,-50.58
132.01,-51.7
132.07,-51.54
132.12,-50.68
132.18,-50.82
132.23,-50.4
132.28,-51.27
132.34,-51.22
132.39,-51.13
132.45,-51.93
132.51,-51.18
132.56,-51.91
132.62,-52.03
132.69,-51.51
132.75,-52.12
132.81,-51.99
132.87,-52.3
132.94,-52.15
133,-52.66
133.07,-52.61
133.13,-51.95
133.2,-51.85
133.26,-52.87
133.33,-52.93
133.4,-52.23
133.46,-51.67
133.52,-52.19
133.59,-52.84
133.66,-53.05
133.73,-53.34
133.8,-52.15
133.87,-53.17
133.94,-53.13
134.01,-53.23
134.09,-53.77
134.16,-52.88
134.24,-53.54
134.31,-53.51
134.39,-53.41
134.47,-53.94
134.55,-53.85
134.62,-53.66
134.7,-54.1
134.79,-54.01
134.87,-53.97
134.95,-54.36
135.04,-55.58
135.12,-54.48
135.21,-55
135.31,-55.06
135.4,-55
135.5,-55.13
135.59,-54.49
135.69,-54.43
135.78,-55.27
135.88,-54.96
135.97,-53.98
136.06,-54.84
136.15,-55.65
136.25,-55.06
136.35,-55.45
136.45,-55.8
136.55,-55.61
136.66,-55.36
136.75,-55.59
136.85,-55.07
136.95,-55.52
137.06,-55.66
137.16,-54.76
137.25,-54.55
137.35,-55.16
137.45,-55.39
137.55,-55.12
137.65,-55.27
137.74,-55.35
137.85,-55
137.95,-54.75
138.05,-55.29
138.15,-54.88
138.25,-55.4
138.35,-55.38
138.45,-54.9
138.55,-55.59
138.66,-55.79
138.76,-55.65
138.87,-56.04
138.98,-55.99
139.09,-55.7
139.2,-56.13
139.31,-55.37
139.42,-55.36
139.52,-55.34
139.63,-55.51
139.74,-55.99
139.85,-55.37
139.95,-55.76
140.06,-55.04
140.16,-55.67
140.27,-55.56
140.38,-55.18
140.49,-55.22
140.59,-55.71
140.7,-55.49
140.81,-55.64
140.92,-55.67
141.03,-55.73
141.14,-55.55
141.25,-55.61
141.36,-55.13
141.46,-55.37
141.57,-56.22
141.69,-54.76
141.79,-54.85
141.89,-55.38
141.99,-54.78
142.09,-55.48
142.2,-55.76
142.31,-55.84
142.42,-55.42
142.53,-55.53
142.64,-55.09
142.74,-55.08
142.84,-54.6
142.94,-55.32
143.05,-55.52
143.16,-55.85
143.27,-55.99
143.38,-55.22
143.48,-54.69
143.58,-55.43
143.68,-55.9
143.8,-55.34
143.9,-55.89
144.02,-55.65
144.13,-55.17
144.23,-54.92
144.33,-55.35
144.43,-55.32
144.54,-55.47
144.65,-55.02
144.75,-55.51
144.85,-55.34
144.96,-55.07
145.06,-55.86
145.17,-55.25
145.28,-55.16
145.38,-54.97
145.49,-55.72
145.6,-55.38
145.71,-55.72
145.82,-56.07
145.93,-55.77
146.04,-54.84
146.14,-55.07
146.25,-55.39
146.35,-55.39
146.46,-55.18
146.56,-55.26
146.67,-54.18
146.75,-55.44
146.86,-54.8
146.96,-55.1
147.06,-54.62
147.16,-55.47
147.27,-55.66
147.38,-55.77
147.49,-55.77
147.6,-55.66
147.71,-55.85
147.82,-55.24
147.93,-54.73
148.03,-54.74
148.12,-55.19
148.23,-55.02
148.33,-54.51
148.42,-55.2
148.53,-55.3
148.63,-55.55
148.74,-55.51
148.85,-55.1
148.95,-55.41
149.06,-55.49
149.16,-55.31
149.27,-55.61
149.38,-55.3
149.48,-55.2
149.59,-54.45
149.68,-54.95
149.78,-54.55
149.88,-54.57
149.98,-54.27
150.07,-54.56
150.17,-54.41
150.26,-54.58
150.36,-54.49
150.46,-54.88
150.56,-54.92
150.66,-54.95
150.76,-54.89
150.86,-54.83
150.96,-54.93
151.06,-55.1
151.16,-54.93
151.26,-54.73
151.36,-55.1
151.47,-54.34
151.57,-54.93
151.67,-55.27
151.77,-54.9
151.87,-55.14
151.98,-55.24
152.08,-55.02
152.19,-54.86
152.29,-54.66
152.39,-54.87
152.49,-54.87
152.59,-54.7
152.69,-54.71
152.79,-55.25
152.9,-54.97
152.99,-54.99
153.1,-55.04
153.2,-55.17
153.31,-55.51
153.42,-55
153.53,-55
153.64,-54.82
153.74,-55.05
153.85,-55.45
153.96,-55.87
154.08,-55.81
154.2,-55.16
154.31,-55.37
154.42,-55.5
154.53,-55.6
154.64,-56.04
154.76,-55.89
154.88,-55.85
155,-56.07
155.12,-55.95
155.24,-55.72
155.35,-55.72
155.46,-56.13
155.58,-55.59
155.7,-55.59
155.81,-55.67
155.93,-55.93
156.04,-56.5
156.18,-56.66
156.31,-56.33
156.44,-55.63
156.55,-55.89
156.67,-56.2
156.8,-55.4
156.92,-55.97
157.03,-55.83
157.15,-55.76
157.27,-56.4
157.39,-55.95
157.51,-55.54
157.63,-55.33
157.74,-55.76
157.86,-55.64
157.97,-56.02
158.09,-55.83
158.19,-55.89
158.29,-56.52
158.4,-55.99
158.5,-55.24
158.61,-55.03
158.71,-54.78
158.81,-54.51
158.91,-53.68
159.01,-54.05
159.11,-53.37
159.2,-54.27
159.3,-54.73
159.39,-54.39
159.49,-54.2
159.59,-54.67
159.69,-54.61
159.8,-54.68
159.9,-54.98
160,-54.67
160.11,-54.58
160.21,-54.66
160.32,-54.81
160.43,-54.65
160.54,-54.91
160.64,-55.21
160.76,-55.02
160.87,-55.28
160.98,-55.21
161.1,-55.18
161.21,-55.9
161.33,-55.67
161.44,-55.24
161.56,-54.45
161.66,-54.07
161.76,-54.71
161.88,-53.92
161.97,-54.02
162.08,-53.86
162.18,-53.93
162.28,-53.72
162.38,-54.15
162.48,-53.85
162.57,-54.41
162.67,-54.9
162.78,-54.29
162.88,-54.25
162.98,-54.23
163.08,-54.28
163.18,-54.78
163.29,-54.28
163.39,-55.44
163.51,-55.36
163.62,-54.44
163.73,-54.46
163.84,-55.3
163.95,-55.96
164.07,-55.8
164.2,-56.14
164.33,-56.01
164.45,-55.46
164.57,-55.7
164.69,-55.56
164.81,-55.78
164.93,-55.34
165.05,-56.09
165.18,-55.86
165.3,-55.78
165.42,-54.92
165.53,-55.32
165.65,-55.85
165.77,-55.5
165.89,-55.38
166,-55.33
166.12,-55.99
166.25,-55.58
166.36,-55.39
166.47,-55.01
166.59,-55.63
166.71,-55.62
166.83,-55.88
166.94,-54.93
167.05,-55.06
167.16,-55.08
167.27,-54.87
167.38,-54.7
167.48,-54.62
167.59,-55.28
167.7,-54.92
167.81,-54.73
167.92,-54.11
168.02,-54.4
168.12,-53.92
168.21,-53.67
168.31,-54.5
168.41,-54.74
168.52,-54.3
168.62,-54.61
168.72,-55.39
168.83,-55.22
168.94,-54.25
169.04,-54.48
169.14,-54.39
169.24,-54.73
169.34,-55
169.45,-55.02
169.57,-55.06
169.68,-54.56
169.78,-54.24
169.88,-55.6
170,-55.23
170.11,-55.35
170.23,-55.36
170.34,-55.51
170.46,-55.46
170.57,-55.53
170.68,-55.51
170.8,-55.55
170.92,-55.69
171.04,-55.82
171.16,-55.48
171.28,-55.69
171.4,-55.09
171.51,-54.76
171.61,-54.35
171.71,-53.86
171.81,-54.33
171.91,-53.82
172.01,-53.64
172.11,-54.35
172.21,-54.09
172.31,-54.76
172.42,-54.54
172.52,-55.17
172.63,-54.4
172.75,-55.16
172.86,-55.24
172.98,-55.86
173.1,-54.96
173.21,-55.55
173.33,-55.16
173.44,-55.58
173.57,-55.65
173.69,-55.96
173.81,-55.7
173.93,-55.63
174.05,-55.52
174.17,-55.67
174.29,-55.3
174.41,-55.73
174.53,-55.32
174.64,-55.68
174.76,-55.23
174.87,-55.34
174.99,-55.74
175.11,-55
175.23,-55.4
175.34,-55.5
175.46,-55.53
175.58,-56.11
175.71,-56.32
175.84,-56.45
175.98,-55.91
176.1,-56.02
176.23,-56.12
176.36,-56.3
176.49,-55.75
176.61,-55.72
176.73,-55.56
176.85,-54.88
176.96,-54.84
177.07,-53.82
177.17,-54.13
177.27,-54.86
177.38,-54.46
177.48,-54.64
177.58,-55.42
177.7,-54.12
177.8,-53.69
177.9,-53.65
177.99,-53.88
178.1,-53.98
178.2,-54.12
178.3,-54.34
178.4,-54.68
178.51,-53.88
178.61,-54.66
178.72,-54.69
178.83,-54.7
178.94,-55.02
179.06,-55.49
179.18,-56.07
179.31,-55.93
179.43,-56.19
179.56,-55.97
179.69,-55.89
179.82,-55.11
179.93,-56.23
180.06,-55.79
180.19,-55.34
180.31,-55.84
180.44,-56.06
180.57,-56.36
180.7,-56.37
180.83,-55.51
180.96,-56.1
181.09,-55.68
181.22,-56.4
181.35,-56.15
181.48,-55.68
181.6,-56.4
181.73,-56.32
181.87,-55.86
182,-56.46
182.13,-56.11
182.27,-55.44
182.41,-55.84
182.53,-55.87
182.66,-56.03
182.8,-56.01
182.93,-56.07
183.06,-55.98
183.2,-56.41
183.33,-55.83
183.46,-56.48
183.6,-56.58
183.74,-56.14
183.88,-55.84
184.01,-56.08
184.14,-55.91
184.28,-56.59
184.42,-56.42
184.55,-56.06
184.69,-56.44
184.83,-56.19
184.97,-56.06
185.1,-55.57
185.23,-55.51
185.35,-56.24
185.49,-56.21
185.62,-55.92
185.76,-56.14
185.89,-55.77
186.02,-55.8
186.15,-55.67
186.27,-55.49
186.4,-55.41
186.51,-55.16
186.63,-54.66
186.75,-55.17
186.87,-54.72
186.98,-54.73
187.1,-54.65
187.21,-53.78
187.32,-53.85
187.43,-54.06
187.53,-53.62
187.63,-53.32
187.73,-52.85
187.83,-52.48
187.92,-53.06
188.01,-52.69
188.1,-53.98
188.21,-54.07
188.31,-53.84
188.42,-53.96
188.53,-54.54
188.64,-54.39
188.76,-54.39
188.87,-54.73
188.99,-53.95
189.1,-54.33
189.21,-54.52
189.32,-54.89
189.44,-54.74
189.56,-54.61
189.67,-54.73
189.79,-54.72
189.91,-55.36
190.04,-54.6
190.16,-54.94
190.28,-55.33
190.4,-56.07
190.54,-56.14
190.67,-55.49
190.8,-56.08
190.94,-55.23
191.06,-55.38
191.19,-55.39
191.32,-54.98
191.44,-55.19
191.56,-54.65
191.68,-55.04
191.81,-54.22
191.92,-54.28
192.03,-53.42
192.13,-53.8
192.23,-53.65
192.33,-53.53
192.44,-54.88
192.56,-54.4
192.67,-54.98
192.8,-54.73
192.91,-54.62
193.03,-54.09
193.14,-54.93
193.26,-55.78
193.4,-55.18
193.52,-55.05
193.65,-55.16
193.77,-55.23
193.9,-54.92
194.02,-55.55
194.15,-54.71
194.27,-55.29
194.4,-54.85
194.52,-54.8
194.64,-54.83
194.75,-54.53
194.87,-55.3
194.99,-54.42
195.11,-54.03
195.21,-54.34
195.32,-54.13
195.43,-54.2
195.55,-54.3
195.64,-53.67
195.74,-54.2
195.85,-54.13
195.96,-54.22
196.07,-53.3
196.17,-54.19
196.28,-53.8
196.38,-54.11
196.48,-53.61
196.58,-54
196.69,-53.79
196.79,-53.58
196.89,-53.34
196.99,-53.24
197.09,-53.04
197.19,-52.92
197.28,-53.03
197.38,-53.21
197.47,-53
197.57,-52.6
197.66,-52.5
197.75,-52.84
197.84,-52.83
197.93,-52.7
198.02,-52.54
198.11,-52.07
198.19,-52.38
198.28,-53.02
198.38,-52.47
198.47,-52.51
198.55,-51.64
198.64,-51.63
198.72,-52.03
198.8,-52.51
198.89,-52.31
198.98,-52.09
199.07,-52.24
199.15,-52.25
199.24,-51.83
199.32,-52.18
199.41,-52.18
199.5,-52.14
199.58,-52.25
199.67,-52.3
199.76,-51.43
199.84,-51.67
199.93,-51.72
200.01,-52.01
200.1,-51.58
200.18,-52.16
200.27,-52.27
200.36,-52.07
200.45,-52.18
200.54,-52.18
200.62,-51.59
200.71,-51.97
200.8,-52.06
200.88,-52.05
200.97,-52.08
201.06,-51.35
201.14,-52.47
201.23,-52
201.32,-51.88
201.41,-51.61
201.49,-51.68
201.58,-52.25
201.67,-52.36
201.76,-52.51
201.85,-52.77
201.95,-52.46
202.05,-53.23
202.15,-53.15
202.25,-52.97
202.35,-52.67
202.45,-53.12
202.55,-53.63
202.66,-53.36
202.76,-52.91
202.86,-53.77
202.98,-54.15
203.09,-53.75
203.2,-53.39
203.31,-54.02
203.43,-53.29
203.53,-53.81
203.65,-54.02
203.76,-53.62
203.87,-53.5
203.98,-53.91
204.1,-53.9
204.21,-53.34
204.32,-53.7
204.43,-53.2
204.54,-52.87
204.64,-53.16
204.74,-53.71
204.86,-53.44
204.96,-52.84
205.06,-52.68
205.16,-52.81
205.26,-52.94
205.37,-52.96
205.47,-52.4
205.56,-53.23
205.67,-52.63
205.76,-52.59
205.86,-52.97
205.96,-53.04
206.07,-52.6
206.17,-52.78
206.27,-52.38
206.36,-52.23
206.46,-51.8
206.55,-52.5
206.65,-52.86
206.75,-52.3
206.85,-53.07
206.95,-52.44
207.05,-52.32
207.15,-52.32
207.24,-52.75
207.34,-52.68
207.44,-52.23
207.54,-52.48
207.64,-51.96
207.72,-52.04
207.82,-52.06
207.91,-52.44
208,-51.9
208.1,-51.97
208.19,-52.07
208.28,-52.23
208.38,-52.12
208.47,-52.29
208.57,-51.77
208.66,-51.53
208.74,-51.96
208.83,-52.19
208.93,-51.37
209.01,-51.36
209.1,-51.98
209.19,-51.58
209.28,-52.07
209.37,-51.99
209.46,-51.5
209.55,-52
209.64,-51.44
209.73,-52
209.82,-51.17
209.9,-51.56
209.99,-51.52
210.08,-51.5
210.16,-50.32
210.23,-51.42
210.32,-51.2
210.4,-51.3
210.49,-51.05
210.57,-51.81
210.66,-51.75
210.75,-52.12
210.84,-51.85
210.93,-51.11
211.01,-51.21
211.09,-51.69
211.18,-51.8
211.27,-51.09
211.35,-51.19
211.44,-51.87
211.53,-51.6
211.62,-52
211.7,-51.59
211.79,-52.02
211.88,-51.6
211.97,-51.53
212.06,-51.63
212.14,-51.28
212.23,-52.18
212.32,-51.74
212.42,-52.1
212.51,-52.2
212.6,-51.85
212.69,-51.6
212.78,-51.51
212.87,-51.71
212.96,-51.85
213.05,-51.51
213.14,-51.26
213.22,-52.01
213.31,-51.62
213.4,-51.61
213.49,-52.18
213.58,-52.17
213.68,-52.39
213.78,-51.64
213.86,-51.41
213.95,-51.62
214.04,-52.03
214.13,-52.05
214.22,-51.58
214.31,-52.06
214.4,-51.82
214.49,-51.53
214.58,-51.59
214.67,-51.61
214.76,-51.35
214.84,-51.04
214.92,-51.59
215.01,-50.65
215.09,-50.99
215.18,-50.77
215.26,-51.07
215.34,-51.01
215.43,-51.04
215.51,-50.78
215.6,-51.5
215.69,-51.29
215.78,-51.79
215.87,-51.48
215.96,-51.7
216.05,-51.7
216.14,-52.02
216.24,-52.36
216.34,-52.12
216.43,-51.97
216.53,-52.09
216.63,-52.36
216.73,-52.57
216.83,-52.56
216.93,-53.16
217.04,-53.02
217.15,-53.14
217.26,-53.38
217.37,-53.09
217.48,-52.61
217.58,-53.63
217.7,-53.5
217.81,-53.38
217.93,-53.15
218.04,-54.05
218.16,-54.43
218.29,-53.62
218.41,-53.8
218.53,-53.85
218.66,-53.78
218.78,-53.93
218.9,-53.65
219.02,-53.59
219.14,-54.4
219.27,-54.11
219.39,-53.85
219.52,-53.89
219.64,-54.55
219.77,-54.46
219.9,-54.4
220.04,-54.25
220.17,-54.68
220.31,-54.7
220.44,-55.04
220.59,-54.73
220.73,-55.2
220.88,-55.14
221.02,-55.27
221.17,-55.59
221.32,-55.22
221.47,-56.46
221.64,-56.2
221.81,-55.6
221.96,-55.17
222.11,-55.38
222.28,-55.92
222.44,-56.11
222.61,-55.84
222.78,-55.98
222.95,-56.37
223.12,-56.16
223.29,-56.58
223.46,-55.9
223.63,-56.44
223.8,-56.43
223.98,-56.52
224.16,-56.1
224.33,-56.54
224.5,-56.09
224.67,-56.09
224.84,-56.06
225,-55.6
225.17,-55.91
225.33,-55.84
225.5,-54.78
225.65,-55.05
225.8,-54.93
225.94,-54.56
226.09,-53.86
226.22,-53.47
226.34,-54.54
226.49,-54.37
226.63,-54.87
226.77,-54.64
226.92,-54.07
227.06,-54.88
227.21,-54.6
227.36,-55.5
227.53,-55.51
227.69,-55.72
227.86,-55.26
228.03,-55.91
228.2,-56.13
228.38,-56.14
228.56,-56.32
228.74,-56.2
228.92,-56.1
229.1,-55.79
229.27,-55.5
229.44,-54.62
229.59,-54.86
229.74,-53.79
229.87,-55.34
230.03,-54.98
230.19,-55.14
230.35,-56.03
230.52,-55.98
230.7,-55.91
230.87,-55.59
231.05,-55.74
231.22,-55.46
231.39,-55.24
231.55,-55.19
231.71,-55.11
231.87,-54.76
232.03,-54.57
232.18,-54.25
232.33,-54.92
232.48,-54.88
232.64,-54.77
232.79,-54.83
232.95,-54.59
233.1,-54.83
233.25,-54.64
233.4,-54.56
233.55,-53.73
233.69,-54.09
233.83,-54.19
233.97,-53.88
234.11,-54.06
234.25,-54.26
234.39,-54.02
234.53,-54.13
234.67,-53.79
234.81,-54.03
234.94,-53.18
235.07,-53.6
235.19,-53.21
235.32,-53.21
235.44,-53.32
235.56,-53.19
235.69,-53.51
235.81,-53.35
235.94,-52.99
236.06,-52.56
236.18,-52.28
236.29,-52.89
236.41,-52.68
236.53,-52.88
236.64,-52.31
236.75,-52.83
236.87,-52.51
236.98,-52.8
237.1,-53.03
237.22,-52.39
237.33,-52.39
237.45,-52.11
237.56,-52.67
237.67,-52.58
237.79,-52.6
237.9,-52.06
238.01,-52.17
238.12,-52.58
238.24,-52.79
238.35,-52.27
238.46,-52.47
238.57,-51.88
238.69,-52.36
238.79,-51.69
238.9,-52.1
239,-51.82
239.11,-52.41
239.23,-52.58
239.33,-51.63
239.44,-52.38
239.55,-52.59
239.66,-52.33
239.77,-52
239.87,-51.04
239.96,-51.48
240.06,-51.78
240.16,-51.34
240.26,-51.31
240.36,-51.05
240.46,-51.33
240.56,-51.31
240.66,-51.21
240.75,-50.64
240.84,-50.93
240.94,-50.89
241.03,-50.41
241.12,-50.29
241.21,-50.19
241.29,-49.99
241.38,-49.45
241.46,-50.36
241.55,-49.58
241.63,-50.11
241.71,-49.1
241.79,-48.42
241.86,-48.24
241.93,-48.59
242,-48.72
242.07,-48.25
242.14,-48.65
242.21,-48.56
242.29,-48.09
242.36,-48.38
242.43,-48.32
242.5,-48.53
242.57,-48.65
242.64,-48.55
242.72,-48.71
242.79,-49.27
242.87,-48.24
242.94,-48.56
243.01,-48.8
243.09,-49.09
243.17,-49.42
243.25,-49.58
243.33,-49.65
243.42,-49.11
243.5,-49.07
243.57,-48.78
243.65,-49.15
243.74,-49.58
243.82,-49.8
243.91,-49.75
244,-49.86
244.09,-50.58
244.19,-51.03
244.29,-51.35
244.4,-51.31
244.51,-51
244.61,-51.51
244.72,-51.56
244.83,-51.93
244.94,-51.71
245.06,-52.06
245.18,-52.21
245.3,-52.23
245.42,-53.07
245.55,-52.51
245.68,-52.66
245.81,-53.4
245.95,-52.97
246.08,-53.59
246.23,-53.8
246.38,-53.99
246.53,-54.51
246.69,-55.22
246.86,-54.89
247.03,-54.82
247.2,-54.97
247.37,-54.15
247.52,-53.85
247.68,-54.14
247.83,-54.42
247.99,-53.87
248.14,-53.67
248.29,-53.52
248.44,-54.1
248.6,-53.83
248.76,-53.73
248.91,-54.48
249.08,-53.99
249.24,-54.05
249.4,-54.49
249.57,-54.47
249.74,-54.83
249.92,-54.9
250.09,-55.41
250.28,-54.83
250.46,-54.96
250.64,-55.15
250.82,-54.9
251,-54.66
251.18,-54.62
251.36,-54.5
251.53,-54.65
251.72,-55.39
251.92,-55.58
252.12,-55.52
252.31,-55.25
252.5,-55.43
252.7,-54.85
252.88,-55.61
253.08,-55.12
253.27,-55.66
253.47,-55.49
253.67,-55.18
253.85,-54.77
254.04,-54.98
254.22,-54.67
254.4,-55.32
254.59,-55.46
254.78,-55.24
254.97,-54.94
255.15,-55.22
255.34,-55.25
255.53,-55.13
255.72,-56.07
255.92,-55.44
256.11,-55.13
256.3,-55.07
256.48,-54.68
256.66,-54.45
256.83,-55.11
257.02,-54.66
257.2,-54.38
257.38,-55.34
257.57,-54.83
257.75,-54.54
257.93,-54.63
258.11,-54.44
258.28,-54.29
258.45,-53.74
258.61,-54.37
258.78,-54.8
258.97,-54.66
259.15,-54.79
259.33,-55.53
259.53,-54.78
259.72,-54.76
259.9,-54.75
260.09,-55.39
260.28,-55.5
260.48,-55.24
260.68,-55.35
260.87,-54.33
261.05,-54.85
261.23,-54.66
261.41,-54.94
261.6,-55.3
261.79,-55.77
262,-55.45
262.19,-55.09
262.38,-55.04
262.57,-55.34
262.76,-54.73
262.94,-55.23
263.14,-54.66
263.32,-53.98
263.48,-53.9
263.65,-54.02
263.82,-54.5
263.99,-54.21
264.17,-54.54
264.35,-54.82
264.53,-54.65
264.71,-54.37
264.89,-54.92
265.08,-55.05
265.27,-55
265.46,-54.82
265.64,-54.85
265.83,-55.15
266.04,-55.13
266.24,-55.57
266.46,-55.48
266.68,-55.15
266.88,-54.65
267.08,-55.37
267.29,-55.7
267.5,-56.01
267.72,-56.08
267.94,-55.46
268.15,-55.59
268.36,-55.7
268.57,-55.68
268.79,-55.87
269,-56.15
269.22,-55.99
269.44,-56.18
269.66,-56.36
269.89,-55.86
270.11,-56.31
270.34,-55.87
270.55,-55.77
270.77,-56.26
270.99,-56.62
271.23,-56.2
271.46,-56.24
271.69,-56.41
271.93,-56.34
272.16,-56.33
272.4,-56.29
272.64,-56.25
272.87,-56.46
273.1,-56.58
273.34,-56.11
273.57,-56.47
273.8,-56.34
274.04,-56.38
274.27,-56.44
274.5,-55.97
274.72,-56.24
274.96,-56.02
275.18,-56.2
275.41,-56.36
275.64,-55.84
275.86,-55.44
276.07,-55.68
276.29,-55.96
276.51,-56.3
276.75,-55.8
276.97,-56.36
277.21,-56.75
277.45,-55.85
277.67,-55.46
277.88,-55.53
278.09,-55.91
278.31,-56.07
278.54,-56.76
278.78,-55.63
278.99,-55.83
279.21,-56.07
279.44,-55.81
279.66,-55.71
279.88,-55.36
280.08,-54.77
280.28,-54.77
280.47,-54
280.64,-54.68
280.83,-55.09
281.03,-54.88
281.22,-55.14
281.42,-55.87
281.63,-55.54
281.84,-55.17
282.03,-54.87
282.23,-54.81
282.42,-54.77
282.61,-54.77
282.8,-54.62
282.99,-54.73
283.18,-54.48
283.36,-54.51
283.54,-54.45
283.72,-54.33
283.9,-54.72
284.09,-54.49
284.27,-54.34
284.45,-54.26
284.63,-54.45
284.81,-54.14
284.99,-54.13
285.17,-54.87
285.36,-53.9
285.54,-54.06
285.71,-54.08
285.89,-54.23
286.07,-53.81
286.24,-53.81
286.41,-53.7
286.58,-53.84
286.75,-54.06
286.93,-53.6
287.09,-54.06
287.27,-54.05
287.44,-53.68
287.61,-53.67
287.78,-53.76
287.95,-53.43
288.11,-53.35
288.27,-53.66
288.43,-53.49
288.6,-53.67
288.77,-53.37
288.93,-53.68
289.1,-53.7
289.26,-53.56
289.43,-53.53
289.6,-53.56
289.76,-52.94
289.92,-52.78
290.07,-52.68
290.22,-52.72
290.37,-53.05
290.54,-53.16
290.7,-52.93
290.86,-53.33
291.02,-53.48
291.18,-53.82
291.36,-54.06
291.54,-54.61
291.73,-53.79
291.91,-54.02
292.09,-54.28
292.28,-54.83
292.49,-54.53
292.68,-54.46
292.88,-54.32
293.07,-54.99
293.28,-55.2
293.49,-55.56
293.71,-55.53
293.93,-55.19
294.15,-54.51
294.35,-55.48
294.57,-55.66
294.79,-55.89
295.02,-55.5
295.24,-55.27
295.45,-55.13
295.67,-54.67
295.88,-54.51
296.07,-53.5
296.25,-54
296.44,-53.98
296.63,-54.36
296.83,-54.8
297.04,-54.9
297.26,-55.29
297.48,-55.68
297.7,-55.17
297.9,-55.65
298.13,-55.48
298.36,-55.26
298.58,-55.11
298.79,-54.85
299,-54.77
299.21,-54.7
299.42,-54.84
299.63,-54.88
299.84,-54.46
300.04,-54.12
300.23,-54.08
300.42,-53.33
300.61,-54.1
300.81,-54.48
301.02,-54.67
301.23,-55.2
301.45,-55.49
301.67,-55.06
301.89,-55.14
302.12,-54.96
302.34,-54.38
302.54,-54.56
302.75,-54.57
302.96,-54.41
303.17,-53.91
303.37,-53.77
303.56,-54.08
303.76,-53.48
303.95,-53.76
304.15,-53.57
304.33,-54
304.52,-53.62
304.72,-53.47
304.91,-53.68
305.1,-53.38
305.28,-52.87
305.46,-52.99
305.63,-53.28
305.82,-54.13
306.01,-53.83
306.21,-54.23
306.41,-53.95
306.6,-54.35
306.81,-55.19
307.03,-55.7
307.27,-55.38
307.49,-55.3
307.72,-55.17
307.95,-55.1
308.17,-54.9
308.38,-54.47
308.59,-54.73
308.81,-54.72
309.02,-54.17
309.22,-54.67
309.43,-54.79
309.65,-55.17
309.87,-54.4
310.08,-54.9
310.3,-54.49
310.51,-54.95
310.73,-54.54
310.93,-54.32
311.13,-54.37
311.34,-54.53
311.54,-54.44
311.76,-54.13
311.95,-54.29
312.16,-53.82
312.36,-54.19
312.56,-54.42
312.77,-53.49
312.96,-53.39
313.15,-53.86
313.34,-53.19
313.52,-53.28
313.71,-52.75
313.88,-53.32
314.07,-53.13
314.25,-52.91
314.43,-53.42
314.62,-52.98
314.8,-52.83
314.97,-52.56
315.14,-53.42
315.32,-53.47
315.51,-52.31
315.68,-52.56
315.85,-52.2
316.01,-51.82
316.17,-51.41
316.32,-52.58
316.49,-52.79
316.67,-52.77
316.84,-52.82
317.03,-52.87
317.21,-53.26
317.4,-53.06
317.59,-53.5
317.78,-53.07
317.96,-53.48
318.16,-53.92
318.36,-54.01
318.57,-54.64
318.79,-54.1
319.01,-54.02
319.22,-54.03
319.43,-54.17
319.64,-54.18
319.85,-53.7
320.05,-53.64
320.25,-53.78
320.46,-53.3
320.66,-53.2
320.85,-52.92
321.03,-53.08
321.22,-52.27
321.4,-52.99
321.58,-52.47
321.76,-52.79
321.94,-52.55
322.12,-52.21
322.29,-52.37
322.46,-51.92
322.62,-51.85
322.79,-52.35
322.96,-51.9
323.12,-51.82
323.28,-51.42
323.44,-51.31
323.59,-51.93
323.76,-51.21
323.91,-51.47
324.06,-50.97
324.21,-50.8
324.36,-50.82
324.5,-50.94
324.65,-51.2
324.8,-50.96
324.95,-51.02
325.1,-50.86
325.24,-50.86
325.39,-51.15
325.53,-50.64
325.67,-50.41
325.8,-50.42
325.94,-50.02
326.07,-50.47
326.2,-50.59
326.34,-50.69
326.48,-50.48
326.62,-50.28
326.75,-50.38
326.89,-50.65
327.03,-50.29
327.16,-50.56
327.3,-50.47
327.43,-50.35
327.56,-50.07
327.69,-49.9
327.82,-50.34
327.95,-50.08
328.08,-50.33
328.22,-50.28
328.35,-50.45
328.48,-49.91
328.6,-49.86
328.73,-50.01
328.86,-50.11
329,-50.44
329.14,-50.47
329.28,-50.19
329.42,-50.51
329.55,-50.07
329.69,-50.47
329.82,-50.39
329.95,-50.29
330.08,-50.14
330.21,-50.01
330.34,-49.91
330.48,-50.51
330.62,-50.12
330.75,-50.25
330.89,-50.23
331.04,-51.04
331.18,-50.54
331.32,-50.51
331.46,-50.29
331.6,-50.36
331.73,-49.56
331.85,-49.65
331.98,-49.55
332.1,-49.02
332.22,-48.92
332.33,-48.71
332.44,-48.47
332.55,-48.16
332.65,-47.73
332.76,-48.35
332.87,-48.29
332.98,-47.72
333.08,-47.63
333.18,-47.5
333.28,-47.22
333.38,-47.52
333.49,-47.49
333.59,-47.46
333.7,-47.62
333.8,-47.64
333.9,-47.05
334,-47.13
334.1,-47.56
334.21,-47.35
334.32,-47.68
334.42,-47.56
334.53,-47.48
334.64,-48.03
334.76,-48.42
334.88,-48.31
335,-48.38
335.12,-48.52
335.25,-48.96
335.38,-48.83
335.51,-49.62
335.66,-49.7
335.8,-49.8
335.95,-50.15
336.1,-50.52
336.26,-50.76
336.43,-50.95
336.59,-51.02
336.76,-51.26
336.94,-51.43
337.12,-51.32
337.3,-51.62
337.48,-51.71
337.67,-51.83
337.86,-52.33
338.06,-52.39
338.27,-52.7
338.49,-53.02
338.72,-53.27
338.95,-53.33
339.19,-53.6
339.44,-53.66
339.69,-54.08
339.95,-54.23
340.22,-54.51
340.5,-54.83
340.8,-55.26
341.12,-55.97
341.45,-56.21
341.77,-55.79
342.1,-56.09
342.45,-56.25
342.76,-55.78
343.1,-56.05
343.4,-55.54
343.73,-55.89
344.04,-55.77
344.37,-55.78
344.69,-55.8
345,-55.67
345.32,-55.79
345.62,-55.51
345.93,-55.58
346.26,-55.92
346.56,-55.25
346.87,-55.53
347.18,-55.44
347.47,-54.98
347.77,-55.48
348.09,-55.95
348.41,-55.95
348.71,-55.24
348.97,-54.37
349.26,-55.2
349.54,-54.61
349.82,-54.76
350.11,-54.91
350.41,-55.36
350.7,-54.88
351,-55.11
351.3,-55.24
351.6,-55.25
351.9,-55.14
352.2,-55.14
352.49,-55.22
352.79,-55.13
353.09,-55.12
353.38,-55.02
353.67,-55.34
353.96,-55.1
354.27,-55.58
354.6,-55.77
354.94,-56.04
355.27,-56.07
355.61,-55.8
355.94,-55.95
356.27,-55.9
356.59,-55.73
356.93,-55.98
357.26,-56.01
357.6,-55.96
357.94,-56.15
358.28,-55.97
358.61,-55.77
358.95,-55.81
359.28,-55.95
359.6,-55.32
359.93,-55.89
360.25,-55.32
360.59,-55.99
360.89,-55.21
361.22,-55.85
361.53,-55.2
361.84,-54.98
362.15,-55.19
362.47,-55.74
362.77,-54.88
363.06,-53.89
363.35,-54.83
363.66,-55
363.96,-54.71
364.26,-55
364.59,-55.48
364.92,-55.64
365.22,-55.11
365.53,-54.81
365.84,-55.17
366.15,-55.1
366.46,-55.26
366.77,-55.47
367.08,-55.3
367.39,-54.99
367.69,-54.74
367.99,-54.97
368.3,-55.27
368.64,-55.76
368.96,-55.41
369.28,-55.24
369.59,-55.17
369.88,-54.81
370.18,-54.92
370.49,-55.04
370.77,-54.33
371.06,-54.47
371.35,-54.51
371.63,-54.46
371.92,-54.35
372.2,-54.18
372.47,-53.82
372.73,-53.37
372.99,-53.67
373.27,-54.01
373.55,-54.23
373.85,-54.6
374.15,-54.79
374.49,-55.7
374.83,-55.51
375.16,-55.37
375.49,-55.4
375.81,-55.24
376.13,-55.27
376.45,-55.11
376.75,-54.82
377.06,-54.79
377.36,-54.78
377.67,-54.78
377.97,-54.46
378.28,-55.18
378.59,-54.83
378.88,-54.61
379.18,-54.46
379.47,-54.52
379.75,-54.3
380.02,-53.76
380.29,-53.96
380.57,-54.07
380.85,-53.78
381.12,-53.84
381.38,-53.42
381.65,-53.34
381.91,-52.78
382.18,-53.34
382.47,-53.83
382.75,-53.95
383.04,-53.86
383.34,-54.54
383.65,-54.56
383.96,-54.58
384.26,-54.4
384.55,-54.15
384.84,-54.17
385.11,-53.4
385.39,-53.63
385.67,-54.04
385.94,-53.48
386.21,-53.31
386.47,-52.57
386.72,-52.19
386.98,-52.83
387.25,-53.41
387.54,-53.53
387.84,-53.96
388.14,-54.11
388.47,-54.55
388.79,-54.57
389.14,-55.23
389.48,-55.12
389.81,-54.62
390.14,-54.78
390.45,-54.21
390.74,-54.02
391.04,-53.91
391.35,-54.09
391.64,-53.95
391.94,-53.95
392.23,-53.77
392.52,-53.48
392.79,-53.29
393.06,-53.06
393.33,-53.16
393.58,-52.62
393.83,-52.47
394.08,-52.42
394.33,-52.47
394.57,-52.03
394.82,-52.28
395.06,-51.97
395.28,-51.32
395.5,-51.43
395.74,-51.73
395.97,-51.42
396.19,-51.54
396.41,-51.53
396.64,-51.13
396.85,-50.84
397.06,-50.98
397.27,-50.95
397.48,-50.93
397.68,-50.38
397.89,-50.81
398.1,-50.87
398.32,-51.3
398.54,-51.15
398.74,-50.49
398.94,-50.65
399.13,-50.6
399.34,-51.13
399.54,-50.66
399.75,-50.79
399.95,-50.42
400.14,-50.43
400.33,-50.16
400.51,-49.88
400.7,-50.08
400.9,-50.39
401.09,-50.36
401.28,-49.8
401.46,-49.86
401.64,-49.68
401.83,-49.9
402.02,-50.05
402.19,-49.55
402.38,-49.91
402.56,-49.74
402.74,-49.55
402.92,-49.44
403.09,-49.36
403.27,-49.43
403.44,-49.47
403.62,-49.61
403.8,-49.58
403.98,-49.48
404.17,-49.8
404.35,-49.29
404.53,-49.28
404.71,-49.47
404.9,-49.52
405.08,-49.3
405.26,-49.94
405.44,-49.23
405.62,-49.08
405.79,-49.03
405.96,-49.11
406.14,-49.43
406.33,-49.62
406.51,-49.1
406.69,-49.3
406.86,-48.84
407.03,-48.68
407.22,-49.16
407.38,-48.68
407.57,-49.37
407.75,-49.22
407.92,-48.96
408.11,-49.26
408.29,-49.44
408.48,-49.46
408.67,-49.51
408.85,-49.29
409.03,-49.12
409.22,-49.53
409.4,-48.97
409.59,-49.31
409.78,-49.44
409.98,-49.5
410.17,-49.5
410.37,-49.49
410.58,-49.57
410.78,-49.36
410.99,-49.63
411.19,-49.66
411.4,-49.45
411.61,-49.97
411.82,-50.2
412.05,-50.31
412.28,-50.26
412.51,-50.28
412.74,-50.48
412.98,-50.16
413.2,-50.16
413.43,-50.4
413.67,-49.95
413.9,-50.39
414.14,-50.64
414.39,-50.27
414.64,-50.2
414.88,-50.32
415.13,-50.49
415.38,-50.1
415.63,-50.21
415.88,-50.29
416.13,-50.3
416.38,-50.04
416.62,-50.25
416.87,-50.23
417.12,-49.85
417.36,-50.28
417.61,-50.36
417.86,-50.13
418.11,-50.27
418.36,-50.24
418.62,-50.61
418.89,-50.44
419.13,-50.32
419.4,-50.38
419.67,-50.47
419.93,-50.55
420.2,-50.53
420.47,-50.53
420.74,-50.64
421.01,-50.72
421.29,-51.32
421.58,-51.38
421.87,-51.33
422.17,-51.44
422.48,-51.47
422.77,-51.22
423.06,-51.61
423.36,-51.85
423.67,-51.51
423.96,-51.44
424.26,-50.7
424.54,-49.79
424.78,-49.6
425.03,-49.78
425.28,-50.23
425.54,-50.9
425.81,-50.93
426.09,-51.28
426.39,-51.65
426.72,-51.5
427.02,-51.84
427.34,-52.64
427.68,-53.1
428.07,-53.02
428.44,-53.81
428.87,-54.21
429.26,-54.42
429.72,-54.79
430.19,-55.18
430.69,-55.74
431.23,-55.66
431.77,-55.73
432.33,-55.88
432.87,-55.95
433.43,-55.61
433.97,-55.51
434.47,-55.63
435.02,-56.19
435.59,-55.75
436.14,-55.69
436.73,-56.3
437.27,-55.98
437.83,-56.25
438.42,-55.77
439.04,-55.87
439.63,-55.93
440.21,-55.84
440.8,-55.9
441.39,-55.64
441.95,-55.3
442.54,-55.38
443.12,-55.02
443.68,-54.4
444.22,-54.87
444.79,-55.03
445.34,-55.1
445.9,-55.06
446.47,-54.8
447.03,-54.06
447.54,-54.19
448.05,-54.46
448.57,-54.8
449.15,-54.73
449.72,-54.98
450.29,-55.31
450.88,-55.46
451.49,-54.56
452.04,-54.81
452.61,-55.12
453.23,-54.62
453.82,-53.85
454.4,-54.28
454.97,-54.32
455.55,-54.68
456.16,-55.25
456.81,-55.87
457.52,-55.71
458.22,-55.79
458.94,-55.93
459.65,-55.83
460.34,-55.67
461.03,-55.79
461.71,-55.25
462.35,-54.7
462.97,-54.98
463.62,-55.01
464.26,-55.34
464.95,-55.76
465.66,-56.01
466.37,-55.77
467.06,-55.71
467.74,-56.19
468.46,-55.44
469.12,-54.48
469.71,-55.28
470.34,-54.51
470.92,-53.67
471.44,-53.27
471.93,-52.63
472.39,-53.18
472.88,-53.65
473.41,-54.28
473.97,-54.97
474.58,-54.91
475.16,-54.3
475.7,-53.6
476.2,-53.47
476.68,-52.94
477.14,-52.69
477.59,-53.24
478.06,-53.88
478.56,-54.42
479.1,-54.32
479.62,-54.04
480.12,-53.7
480.61,-53.74
481.08,-53.65
481.57,-53.61
482.04,-53.43
482.49,-53.03
482.93,-53.26
483.37,-52.92
483.8,-52.89
484.23,-52.79
484.64,-52.72
485.05,-52.75
485.46,-52.69
485.87,-52.7
486.28,-52.32
486.68,-52.32
487.06,-52.12
487.44,-51.99
487.82,-51.78
488.19,-52.17
488.56,-51.12
488.89,-51.95
489.26,-51.86
489.62,-51.67
489.98,-51.63
490.34,-51.84
490.7,-51.94
491.08,-52.02
491.46,-52.16
491.85,-52.15
492.23,-52.26
492.63,-52.29
493.02,-52.22
493.42,-52
493.8,-52.53
494.21,-52.43
494.6,-52.38
495,-52.52
495.4,-52.47
495.8,-52.39
496.19,-52.35
496.58,-52.58
496.98,-52.64
497.38,-52.47
497.76,-52.52
498.16,-52.62
498.55,-52.52
498.93,-52.52
499.32,-52.51
499.69,-52.89
500.09,-52.82
500.48,-52.99
500.88,-52.97
501.27,-53.11
501.66,-53.2
502.07,-53.1
502.45,-53.1
502.83,-53.1
503.22,-52.96
503.6,-53.11
503.97,-53.12
504.35,-52.82
504.71,-52.87
505.08,-53.53
505.47,-53.68
505.88,-53.58
506.27,-53.52
506.65,-53.25
507.03,-53.23
507.4,-53.15
507.76,-53.06
508.12,-53.42
508.49,-54.28
508.9,-54.09
509.31,-53.97
509.7,-54.13
510.1,-53.82
510.49,-54
510.88,-53.98
511.27,-54.15
511.66,-54.16
512.05,-54.13
512.43,-53.89
512.81,-54
513.19,-54.08
513.56,-54
513.93,-53.48
514.28,-53.7
514.63,-53.72
514.99,-53.79
515.34,-53.35
515.68,-53.03
516.01,-52.95
516.33,-53.38
516.67,-53.15
517,-53.33
517.33,-52.76
517.64,-53.13
517.96,-52.66
518.27,-52.89
518.58,-52.78
518.89,-52.73
519.19,-52.54
519.5,-52.82
519.8,-52.58
520.11,-52.81
520.42,-52.66
520.73,-52.44
521.03,-53
521.35,-52.71
521.66,-52.5
521.98,-52.47
522.29,-52.56
522.61,-53.55
522.97,-53.41
523.32,-53.38
523.68,-53.09
524.02,-53.09
524.38,-53.08
524.73,-53.56
525.1,-53.25
525.45,-53.37
525.81,-53.56
526.18,-53.5
526.56,-53.46
526.94,-53.04
527.3,-53.42
527.68,-53.29
528.06,-52.94
528.42,-52.74
528.78,-52.9
529.16,-53.02
529.53,-53.35
529.94,-53.68
530.36,-54.17
530.8,-54.74
531.28,-54.99
531.8,-54.89
532.3,-55.28
532.84,-55.23
533.38,-55.26
533.93,-55.13
534.46,-55.07
534.99,-54.65
535.51,-54.81
536.04,-54.73
536.58,-54.8
537.11,-54.82
537.65,-54.45
538.19,-55.09
538.78,-55.32
539.39,-55.31
539.99,-55.2
540.59,-55.1
541.19,-55.35
541.79,-55.32
542.38,-55.12
542.96,-55.33
543.55,-55.38
544.15,-55.59
544.76,-55.76
545.37,-55.84
545.99,-55.89
546.6,-55.86
547.2,-55.34
547.75,-55.07
548.28,-55.34
548.82,-55.37
549.35,-55.2
549.86,-54.71
550.32,-54.06
550.76,-54.21
551.21,-54.81
551.67,-54.91
552.13,-55.38
552.61,-55.01
553.05,-54.9
553.48,-54.33
553.87,-54.06
554.25,-53.74
554.6,-53.59
554.95,-53.15
555.27,-52.69
555.56,-52.44
555.84,-52.52
556.13,-53.5
556.41,-53.06
556.72,-53.29
557.01,-53.74
557.31,-53.72
557.62,-54.05
557.91,-54
558.21,-54.15
558.51,-54.63
558.82,-55.21
559.13,-55.18
559.46,-54.89
559.78,-54.38
560.08,-54.17
560.35,-54.09
560.63,-53.9
560.89,-54.03
561.15,-53.91
561.4,-53.57
561.65,-53.65
561.89,-53.4
562.13,-53.32
562.36,-53.07
562.58,-53.16
562.8,-52.91
563.02,-52.89
563.23,-52.7
563.43,-52.78
563.64,-52.61
563.84,-52.64
564.04,-52.41
564.24,-52.09
564.43,-52.13
564.63,-52.01
564.82,-52.03
564.99,-52.05
565.18,-52.09
565.37,-51.97
565.55,-51.92
565.75,-51.43
565.93,-51.48
566.11,-51.54
566.3,-51.58
566.48,-51.45
566.67,-51.53
566.86,-51.4
567.05,-51.58
567.23,-51.18
567.42,-50.96
567.6,-51.36
567.78,-51.43
567.97,-51.2
568.16,-51.2
568.35,-51.08
568.53,-51.33
568.72,-51.43
568.91,-51.5
569.09,-51.38
569.29,-51.22
569.47,-51.2
569.66,-51.13
569.85,-51.35
570.03,-51.28
570.23,-51.39
570.42,-51.59
570.61,-51.33
570.81,-51.29
571,-51.33
571.19,-51.38
571.39,-51.21
571.59,-51.35
571.78,-51.5
571.98,-51.37
572.18,-51.6
572.38,-51.67
572.58,-51.32
572.79,-51.46
572.99,-51.43
573.19,-52.04
573.39,-51.69
573.61,-51.47
573.81,-51.58
574.02,-51.75
574.22,-51.53
574.43,-51.44
574.63,-51.59
574.84,-51.6
575.04,-51.77
575.24,-51.34
575.45,-51.23
575.65,-51.59
575.86,-51.71
576.08,-51.6
576.3,-51.75
576.52,-51.73
576.75,-51.51
576.98,-51.65
577.21,-51.73
577.45,-52.08
577.68,-51.64
577.93,-51.44
578.17,-51.58
578.4,-51.35
578.65,-51.04
578.88,-51.06
579.11,-50.85
579.35,-50.65
579.59,-50.95
579.84,-50.91
580.08,-51.15
580.34,-51.63
580.6,-52.23
580.88,-52.15
581.19,-52.39
581.51,-53.13
581.85,-53.31
582.21,-53.87
582.59,-54.18
583,-54.55
583.45,-55.16
583.93,-55.05
584.45,-54.32
584.98,-54.22
585.49,-54.58
585.99,-54.42
586.52,-54.86
587.03,-55.12
587.62,-54.79
588.21,-54.27
588.78,-53.73
589.31,-52.94
589.83,-52.81
590.34,-52.6
590.82,-53.81
591.3,-54.52
591.86,-54.25
592.47,-54.05
593.08,-53.92
593.67,-53.75
594.26,-53.56
594.82,-53.13
595.4,-53.5
595.96,-54.23
596.55,-55.02
597.19,-55.6
597.89,-55.26
598.67,-54.73
599.4,-54.49
600.1,-54.42
600.79,-54.37
601.49,-53.85
602.12,-53.72
602.79,-53.65
603.47,-53.57
604.15,-53.44
604.83,-53.19
605.51,-53.02
606.16,-52.77
606.82,-52.5
607.47,-52.08
608.08,-52.12
608.67,-51.73
609.27,-51.48
609.85,-51.19
610.43,-51.16
610.99,-51.28
611.54,-51.29
612.13,-51.3
612.72,-50.98
613.31,-51.06
613.88,-51.19
614.47,-51.36
615.06,-50.84
615.67,-51.02
616.27,-51.12
616.9,-51.51
617.53,-51.76
618.21,-51.48
618.9,-51.56
619.58,-51.54
620.28,-51.5
620.95,-51.5
621.64,-51.63
622.34,-51.86
623.05,-51.99
623.8,-51.8
624.56,-51.53
625.32,-50.77
626.07,-51.47
626.8,-52.51
627.6,-53.33
628.49,-54.37
629.49,-55.3
630.65,-55.49
631.96,-55.53
633.31,-55.4
634.68,-55.83
635.96,-55.76
637.31,-55.54
638.66,-55.7
639.95,-55.76
641.26,-55.8
642.59,-55.42
643.91,-55.11
645.12,-55.02
646.22,-55.02
647.33,-55.15
648.43,-54.86
649.52,-54.61
650.56,-54.66
651.55,-54.77
652.59,-55.09
653.59,-55.12
654.61,-54.76
655.61,-54.38
656.55,-54.07
657.42,-54.53
658.26,-54.87
659.09,-55.5
659.97,-55.4
660.87,-55.92
661.74,-55.68
662.65,-55.27
663.51,-55.19
664.29,-55.75
665.08,-56.15
665.89,-56.29
666.72,-56.37
667.55,-56.32
668.35,-56.23
669.13,-55.56
669.85,-54.95
670.51,-54.89
671.1,-55.25
671.71,-55.58
672.29,-55.69
672.91,-55.53
673.52,-55.34
674.13,-55.23
674.72,-54.86
675.29,-54.44
675.85,-53.87
676.36,-53.85
676.87,-54.5
677.33,-55
677.79,-54.7
678.27,-54
678.78,-53.3
679.27,-53.61
679.72,-54.25
680.12,-54.57
680.54,-54.97
680.99,-55.22
681.45,-54.9
681.94,-54.33
682.43,-53.93
682.91,-53.7
683.37,-53.98
683.79,-53.97
684.2,-53.76
684.61,-53.53
685.03,-53.45
685.43,-53.38
685.82,-53.41
686.21,-53.29
686.59,-53.08
686.97,-53.12
687.34,-52.9
687.71,-52.79
688.07,-52.7
688.44,-52.7
688.79,-52.77
689.14,-52.95
689.49,-52.73
689.84,-52.72
690.19,-52.59
690.54,-52.56
690.88,-52.22
691.22,-52.17
691.56,-52.31
691.89,-52.24
692.21,-52.13
692.54,-52.11
692.87,-51.76
693.19,-51.39
693.51,-51.39
693.83,-51.6
694.13,-51.57
694.44,-51.76
694.76,-51.76
695.07,-51.69
695.39,-51.61
695.71,-51.66
696.03,-51.53
696.35,-51.54
696.67,-51.66
696.99,-51.54
697.31,-51.4
697.64,-51.57
697.97,-51.5
698.3,-51.4
698.63,-51.56
698.97,-51.8
699.32,-51.94
699.67,-52.02
700.03,-52.12
700.4,-52.01
700.78,-51.89
701.18,-51.76
701.56,-51.6
701.95,-51.64
702.34,-51.87
702.72,-51.86
703.11,-51.74
703.53,-51.81
703.96,-51.95
704.38,-52.17
704.83,-52.37
705.29,-52.36
705.77,-52.4
706.27,-52.62
706.78,-52.6
707.31,-52.56
707.87,-52.46
708.44,-52.45
709.01,-52.66
709.59,-52.76
710.18,-52.81
710.81,-52.73
711.44,-52.6
712.09,-52.64
712.74,-52.75
713.41,-52.46
714.09,-52.45
714.81,-52.67
715.48,-53.11
716.16,-53.37
716.86,-53.69
717.63,-54.13
718.38,-54.16
719.15,-54.8
720,-54.97
720.76,-55.42
721.64,-55.96
722.53,-55.5
723.48,-54.66
724.23,-54.04
724.98,-53.47
725.8,-53.51
726.54,-54.13
727.21,-54.13
727.95,-54.06
728.66,-53.87
729.37,-53.77
730.05,-53.55
730.71,-53.43
731.33,-53.47
731.95,-53.31
732.6,-52.86
733.24,-52.48
733.8,-52.63
734.33,-52.65
734.84,-52.69
735.34,-52.47
735.86,-52.25
736.36,-52.39
736.84,-52.71
737.35,-52.84
737.81,-52.95
738.29,-53.27
738.8,-53.59
739.28,-54.19
739.78,-54.67
740.29,-55.33
740.87,-55.58
741.47,-55.6
742.09,-55.54
742.71,-55.69
743.33,-55.98
743.93,-55.94
744.55,-55.75
745.17,-55.4
745.78,-55.7
746.38,-55.73
746.95,-55.66
747.52,-55.81
748.09,-55.8
748.64,-55.81
749.2,-55.8
749.77,-55.8
750.32,-55.85
750.88,-55.92
751.43,-55.93
751.99,-55.86
752.56,-55.83
753.14,-55.8
753.72,-55.66
754.3,-55.58
754.89,-55.63
755.48,-55.25
756.06,-54.59
756.64,-53.97
757.22,-53.7
757.76,-53.81
758.27,-54.18
758.76,-54.48
759.28,-54.85
759.84,-55.29
760.42,-55.59
761.02,-55.57
761.69,-55.2
762.39,-54.68
763.08,-54.23
763.76,-53.89
764.4,-53.74
765.02,-53.94
765.63,-54.39
766.24,-54.8
766.88,-55.16
767.56,-54.98
768.3,-54.29
769.07,-53.73
769.83,-53.2
770.56,-52.93
771.25,-52.99
771.91,-53.39
772.55,-53.29
773.24,-53.06
773.96,-52.69
774.7,-52.48
775.44,-52.31
776.16,-52.07
776.86,-52.05
777.54,-51.9
778.2,-51.85
778.87,-51.74
779.55,-51.63
780.21,-51.65
780.86,-51.75
781.52,-51.71
782.18,-51.37
782.86,-51.48
783.53,-51.23
784.17,-51.1
784.83,-50.69
785.47,-50.65
786.11,-50.65
786.71,-50.17
787.3,-49.86
787.89,-51.11
788.44,-51.4
789.02,-51.34
789.64,-51.83
790.28,-52.34
790.94,-52.68
791.62,-53.16
792.33,-53.68
793.08,-53.85
793.88,-54.11
794.71,-54.86
795.56,-55.45
796.45,-55.77
797.41,-56.06
798.44,-56.04
799.5,-56.02
800.59,-56
801.66,-56.34
